TimeStamp,Delta_TP9,Delta_AF7,Delta_AF8,Delta_TP10,Theta_TP9,Theta_AF7,Theta_AF8,Theta_TP10,Alpha_TP9,Alpha_AF7,Alpha_AF8,Alpha_TP10,Beta_TP9,Beta_AF7,Beta_AF8,Beta_TP10,Gamma_TP9,Gamma_AF7,Gamma_AF8,Gamma_TP10,RAW_TP9,RAW_AF7,RAW_AF8,RAW_TP10,AUX_RIGHT,Accelerometer_X,Accelerometer_Y,Accelerometer_Z,Gyro_X,Gyro_Y,Gyro_Z,HeadBandOn,HSI_TP9,HSI_AF7,HSI_AF8,HSI_TP10,Battery,Elements
2024-12-17 14:14:43.379,,,,,,,,,,,,,,,,,,,,,,,,,,,,,,,,,,,,,,/muse/event/connected Muse-D2D3
2024-12-17 14:14:43.444,,,,,,,,,,,,,,,,,,,,,,,,,,,,,,,,,,,,,,/muse/elements/blink
2024-12-17 14:14:43.880,0.8088876008871521,0.2054665284627503,0.5870989660910896,0.8311225042550621,1.007971656260737,-0.2158915796050671,0.254369263174097,0.2186294848893385,0.8822326148873717,0.5869109925064828,0.1626245804496931,0.3410622288070124,0.9671583632450966,1.035399942976985,0.2549813146101004,1.013443497703004,0.7314206802856926,0.7320594147695276,0.2661451289269677,1.058663194474554,796.996336996337,801.4285714285714,787.7289377289378,776.8498168498169,643.0769230769231,-0.232727,0.079773,0.980164,4.284210,-0.755157,1.263580,1,2,1,1,2,45.000000
2024-12-17 14:14:44.380,0.8088876008871521,0.1914760167384703,0.5844223388819024,0.8311225042550621,1.007971656260737,-0.1406751054523888,0.2660654691817121,0.2186294848893385,0.8822326148873717,0.5653582291976297,0.1206878210473516,0.3410622288070124,0.9671583632450966,0.9369125224861082,0.2818551441678059,1.013443497703004,0.7314206802856926,0.6683206023877871,0.2061913625775342,1.058663194474554,743.0036630036631,792.1611721611722,814.7252747252747,795.7875457875458,842.1245421245421,-0.281616,0.090576,0.969849,4.201965,25.877228,0.373840,1,2,1,1,2,45.000000
2024-12-17 14:14:44.707,,,,,,,,,,,,,,,,,,,,,,,,,,,,,,,,,,,,,,/muse/elements/blink
2024-12-17 14:14:44.880,0.8088876008871521,0.1543788902388494,0.3904172939098333,0.8311225042550621,1.007971656260737,-0.04153788451218274,-0.08057370662244741,0.2186294848893385,0.8822326148873717,0.5021846009902415,0.1075489442539981,0.3410622288070124,0.9671583632450966,0.883311313821631,0.3434683856990742,1.013443497703004,0.7314206802856926,0.6934721925808386,0.2158542979726412,1.058663194474554,843.7362637362637,800.2197802197802,790.5494505494506,809.0842490842491,715.2014652014652,-0.381531,0.102173,0.922302,4.044952,-9.704895,-0.770111,1,2,1,1,2,45.000000
2024-12-17 14:14:45.313,,,,,,,,,,,,,,,,,,,,,,,,,,,,,,,,,,,,,,/muse/elements/blink
2024-12-17 14:14:45.380,0.8088876008871521,0.3167658323544678,0.1872685524581752,0.8311225042550621,1.007971656260737,0.24571331402504,-0.1580183730810741,0.2186294848893385,0.8822326148873717,0.1162688668655859,0.06767058540854869,0.3410622288070124,0.9671583632450966,0.8966911126983536,0.3812409401558874,1.013443497703004,0.7314206802856926,0.7912855955823941,0.1068740650636031,1.058663194474554,920.6959706959707,806.6666666666667,784.1025641025641,866.7032967032967,799.8168498168499,-0.351440,0.068542,0.952026,1.465454,-7.701111,-0.613098,1,2,1,1,2,50.000000
2024-12-17 14:14:45.886,0.8088876008871521,0.2875176937137977,0.3525132630013914,0.8311225042550621,1.007971656260737,0.3868108609205656,-0.1835856902452447,0.2186294848893385,0.8822326148873717,0.3693383510487944,-0.03576517539569481,0.3410622288070124,0.9671583632450966,0.9670070590617185,0.3414662898805769,1.013443497703004,0.7314206802856926,0.8901336305910535,-0.03701787561044975,1.058663194474554,756.7032967032967,807.8754578754579,805.0549450549451,824.7985347985348,665.6410256410256,-0.322266,0.071228,0.958130,3.319702,-0.396271,0.904694,1,2,1,1,2,50.000000
2024-12-17 14:14:46.110,,,,,,,,,,,,,,,,,,,,,,,,,,,,,,,,,,,,,,/muse/elements/blink
2024-12-17 14:14:46.380,0.8088876008871521,0.2360457674672273,0.3525132630013914,0.8311225042550621,1.007971656260737,0.4035555734486795,-0.1835856902452447,0.2186294848893385,0.8822326148873717,0.5970747107086456,-0.03576517539569481,0.3410622288070124,0.9671583632450966,0.9712393264693839,0.3414662898805769,1.013443497703004,0.7314206802856926,0.8646097046947915,-0.03701787561044975,1.058663194474554,759.92673992674,797.3992673992674,811.9047619047619,788.9377289377289,628.974358974359,-0.302612,0.071899,0.963379,1.704712,-7.446899,0.134583,1,2,1,1,2,50.000000
2024-12-17 14:14:46.880,0.8088876008871521,0.08572815004261869,0.6214763461809503,0.8311225042550621,1.007971656260737,0.3332423031232505,0.441129096862813,0.2186294848893385,0.8822326148873717,0.6938824885720088,0.279882591502277,0.3410622288070124,0.9671583632450966,0.9881084784501464,0.4246905208142273,1.013443497703004,0.7314206802856926,0.8059272852614607,0.0428090051867451,1.058663194474554,886.8498168498169,803.040293040293,820.3663003663004,778.4615384615385,742.6007326007326,-0.304260,0.063171,0.959961,1.532745,-1.128998,-3.872986,1,2,1,1,2,50.000000
2024-12-17 14:14:47.143,,,,,,,,,,,,,,,,,,,,,,,,,,,,,,,,,,,,,,/muse/elements/blink
2024-12-17 14:14:47.391,0.8088876008871521,0.1541943907760359,0.7307877316259248,0.8311225042550621,1.007971656260737,0.1786725298425972,0.4783414465986792,0.2186294848893385,0.8822326148873717,0.6857381154855462,0.3097588725911522,0.3410622288070124,0.9671583632450966,0.9102133760308632,0.4540277783394068,1.013443497703004,0.7314206802856926,0.7288851692966108,0.1607789969508805,1.058663194474554,733.7362637362637,776.4468864468864,781.2820512820513,759.5238095238095,871.5384615384615,-0.319092,0.054504,1.010071,-0.224304,-5.787048,-0.269165,1,2,1,1,2,50.000000
2024-12-17 14:14:47.879,0.8088876008871521,0.3281811810953463,0.8955623819632487,0.8311225042550621,1.007971656260737,0.01768113282874643,0.5704502215173687,0.2186294848893385,0.8822326148873717,0.6098197809684011,0.3058050229578275,0.3410622288070124,0.9671583632450966,0.918443991179158,0.4769831844213809,1.013443497703004,0.7314206802856926,0.846927118636746,0.2987581281030676,1.058663194474554,775.2380952380953,800.2197802197802,808.2783882783883,834.4688644688645,872.7472527472528,-0.323669,0.134583,0.916382,8.403931,-12.740479,-0.441132,1,2,1,1,2,50.000000
2024-12-17 14:14:47.942,,,,,,,,,,,,,,,,,,,,,,,,,,,,,,,,,,,,,,/muse/elements/blink
2024-12-17 14:14:48.380,0.8088876008871521,0.320123506688951,0.9338208122502134,0.8311225042550621,1.007971656260737,-0.1393184039505747,0.6178111364897326,0.2186294848893385,0.8822326148873717,0.2698258998504632,0.2906252798917925,0.3410622288070124,0.9671583632450966,0.8346248915213981,0.5298222633496708,1.013443497703004,0.7314206802856926,0.9668918957284655,0.4635705640597288,1.058663194474554,691.8315018315019,807.0695970695971,813.5164835164835,765.5677655677656,831.6483516483516,-0.211975,0.074219,1.005676,0.164490,13.757324,13.891907,1,2,1,1,2,50.000000
2024-12-17 14:14:48.880,0.8088876008871521,0.3342801808561288,0.8769590804556276,0.8311225042550621,1.007971656260737,-0.1021770831482639,0.5699465284546275,0.2186294848893385,0.8822326148873717,0.2341963172954189,0.2991446383355636,0.3410622288070124,0.9671583632450966,0.9280142444291321,0.5612103877687421,1.013443497703004,0.7314206802856926,1.090860166729112,0.5233405481653878,1.058663194474554,832.8571428571429,812.3076923076924,821.1721611721612,755.4945054945055,751.0622710622711,-0.341858,0.071716,1.098389,5.084229,10.011444,-7.813263,1,2,1,1,2,50.000000
2024-12-17 14:14:49.161,,,,,,,,,,,,,,,,,,,,,,,,,,,,,,,,,,,,,,/muse/elements/blink
2024-12-17 14:14:49.385,0.8088876008871521,0.2619908502360406,0.7591235681053975,0.8311225042550621,1.007971656260737,0.009864472068563484,0.49903810406662,0.2186294848893385,0.8822326148873717,0.04249355541218545,0.2644521601082434,0.3410622288070124,0.9671583632450966,0.975290724390815,0.5700251828605636,1.013443497703004,0.7314206802856926,1.120888239657753,0.5605662057427589,1.058663194474554,931.978021978022,792.967032967033,811.9047619047619,777.2527472527473,307.4358974358975,-0.235962,0.096375,0.864014,1.398163,1.914062,1.742096,1,2,1,1,2,50.000000
2024-12-17 14:14:49.775,,,,,,,,,,,,,,,,,,,,,,,,,,,,,,,,,,,,,,/muse/elements/blink
2024-12-17 14:14:49.880,0.8088876008871521,0.273214359478042,0.7210389586794878,0.8311225042550621,1.007971656260737,0.02729874489337069,0.4150365452915473,0.2186294848893385,0.8822326148873717,0.03780242321637717,0.7838565430299403,0.3410622288070124,0.9671583632450966,1.142066375796342,0.5884554830423974,1.013443497703004,0.7314206802856926,1.186695040818126,0.5516600553607858,1.058663194474554,643.8827838827839,814.7252747252747,793.3699633699634,765.9706959706959,608.4249084249085,-0.243713,0.043701,0.816101,4.613190,-30.228729,19.940643,1,4,1,1,2,50.000000
2024-12-17 14:14:50.286,,,,,,,,,,,,,,,,,,,,,,,,,,,,,,,,,,,,,,/muse/elements/blink
2024-12-17 14:14:50.380,0.8088876008871521,0.2857699458510505,0.7127974330254013,0.8311225042550621,1.007971656260737,-0.006677623218939013,0.5664405305376631,0.2186294848893385,0.8822326148873717,0.03780242321637717,1.088338000817789,0.3410622288070124,0.9671583632450966,1.191696035440136,0.8610025568894032,1.013443497703004,0.7314206802856926,1.225286912224486,0.7089281574832882,1.058663194474554,644.6886446886447,792.5641025641025,818.3516483516484,644.6886446886447,842.9304029304029,-0.174377,0.128601,0.821594,3.267365,-1.465454,-6.093597,1,4,1,1,2,50.000000
2024-12-17 14:14:50.691,,,,,,,,,,,,,,,,,,,,,,,,,,,,,,,,,,,,,,/muse/elements/blink
2024-12-17 14:14:50.893,0.8088876008871521,0.2857699458510505,0.6294139100638043,0.8311225042550621,1.007971656260737,-0.006677623218939013,0.602866886647248,0.2186294848893385,0.8822326148873717,0.03780242321637717,1.088338000817789,0.3410622288070124,0.9671583632450966,1.191696035440136,0.9679539263474357,1.013443497703004,0.7314206802856926,1.225286912224486,0.7674899024439821,1.058663194474554,714.7985347985348,811.9047619047619,795.3846153846154,786.9230769230769,774.4322344322345,-0.340210,0.035278,0.819946,2.743988,-1.241150,2.736511,1,4,1,1,2,50.000000
2024-12-17 14:14:51.380,0.8088876008871521,0.2857699458510505,0.4302253302040988,0.8311225042550621,1.007971656260737,-0.006677623218939013,0.7206142423000605,0.2186294848893385,0.8822326148873717,0.03780242321637717,1.088338000817789,0.3410622288070124,0.9671583632450966,1.191696035440136,1.15354805125484,1.013443497703004,0.7314206802856926,1.225286912224486,0.9016027622063438,1.058663194474554,587.8754578754579,821.5750915750916,810.2930402930403,843.7362637362637,1238.608058608059,-0.367371,0.133972,1.030151,4.904785,-7.050629,-2.923431,1,2,1,1,2,50.000000
2024-12-17 14:14:51.603,,,,,,,,,,,,,,,,,,,,,,,,,,,,,,,,,,,,,,/muse/elements/blink
2024-12-17 14:14:51.880,0.8088876008871521,0.2857699458510505,0.5830581857433609,0.8311225042550621,1.007971656260737,-0.006677623218939013,0.2410224972301644,0.2186294848893385,0.8822326148873717,0.03780242321637717,0.2419732127867238,0.3410622288070124,0.9671583632450966,1.191696035440136,0.4621674672374042,1.013443497703004,0.7314206802856926,1.225286912224486,0.2212976677073667,1.058663194474554,840.9157509157509,828.8278388278388,825.2014652014652,805.4578754578755,881.6117216117217,-0.253357,0.044495,0.954712,-6.489868,0.246735,11.641388,1,4,1,1,2,50.000000
2024-12-17 14:14:52.380,0.8088876008871521,0.2857699458510505,0.6580600327527355,0.8311225042550621,1.007971656260737,-0.006677623218939013,0.1787676699351631,0.2186294848893385,0.8822326148873717,0.03780242321637717,0.3713136325838715,0.3410622288070124,0.9671583632450966,1.191696035440136,0.6682452233329709,1.013443497703004,0.7314206802856926,1.225286912224486,0.2900229333429912,1.058663194474554,721.6483516483516,770.8058608058608,808.2783882783883,798.2051282051282,603.5897435897436,-0.584473,0.117859,1.304871,-2.048645,15.192871,-10.295563,1,2,1,1,2,50.000000
2024-12-17 14:14:52.624,,,,,,,,,,,,,,,,,,,,,,,,,,,,,,,,,,,,,,/muse/elements/blink
2024-12-17 14:14:52.810,,,,,,,,,,,,,,,,,,,,,,,,,,,,,,,,,,,,,,/muse/elements/blink
2024-12-17 14:14:52.880,0.8088876008871521,0.2857699458510505,0.7272899403613958,0.8311225042550621,1.007971656260737,-0.006677623218939013,0.1697925037924152,0.2186294848893385,0.8822326148873717,0.03780242321637717,0.3953210994470416,0.3410622288070124,0.9671583632450966,1.191696035440136,0.6206556031030264,1.013443497703004,0.7314206802856926,1.225286912224486,0.2925241006908204,1.058663194474554,919.0842490842491,806.6666666666667,799.4139194139194,815.1282051282052,493.992673992674,-0.279907,0.127075,0.793762,0.456085,7.080536,-3.401947,1,4,1,1,2,50.000000
2024-12-17 14:14:53.235,,,,,,,,,,,,,,,,,,,,,,,,,,,,,,,,,,,,,,/muse/elements/blink
2024-12-17 14:14:53.380,0.8088876008871521,0.2857699458510505,0.7786720778677615,0.8311225042550621,1.007971656260737,-0.006677623218939013,0.1339515729594674,0.2186294848893385,0.8822326148873717,0.03780242321637717,0.3862484399118114,0.3410622288070124,0.9671583632450966,1.191696035440136,0.6759925476189308,1.013443497703004,0.7314206802856926,1.225286912224486,0.3207811590560579,1.058663194474554,826.007326007326,796.5934065934066,793.7728937728938,816.3369963369963,621.7216117216118,-0.308716,0.082825,0.819946,4.463654,-16.127472,7.289886,1,4,1,1,2,50.000000
2024-12-17 14:14:53.880,0.8088876008871521,0.2857699458510505,0.917713264296921,0.8311225042550621,1.007971656260737,-0.006677623218939013,0.1395206488537144,0.2186294848893385,0.8822326148873717,0.03780242321637717,0.370502387001764,0.3410622288070124,0.9671583632450966,1.191696035440136,0.5183228547423985,1.013443497703004,0.7314206802856926,1.225286912224486,0.3299256178293455,1.058663194474554,722.8571428571429,784.5054945054945,795.3846153846154,768.3882783882784,675.3113553113553,-0.216064,0.081543,0.726013,-2.639313,-13.764801,-6.796417,1,4,1,1,2,50.000000
2024-12-17 14:14:54.379,0.8088876008871521,0.2857699458510505,0.917713264296921,0.8311225042550621,1.007971656260737,-0.006677623218939013,0.1395206488537144,0.2186294848893385,0.8822326148873717,0.03780242321637717,0.370502387001764,0.3410622288070124,0.9671583632450966,1.191696035440136,0.5183228547423985,1.013443497703004,0.7314206802856926,1.225286912224486,0.3299256178293455,1.058663194474554,720.4395604395604,790.952380952381,795.3846153846154,820.3663003663004,712.7838827838829,-0.198242,0.032043,0.753662,8.344116,-17.839661,13.017120,1,4,1,1,2,50.000000
2024-12-17 14:14:54.450,,,,,,,,,,,,,,,,,,,,,,,,,,,,,,,,,,,,,,/muse/elements/blink
2024-12-17 14:14:54.829,,,,,,,,,,,,,,,,,,,,,,,,,,,,,,,,,,,,,,/muse/elements/blink
2024-12-17 14:14:54.884,0.8088876008871521,0.6510842130462573,0.7000543422765216,0.8311225042550621,1.007971656260737,0.2243475155570537,0.1139052792635231,0.2186294848893385,0.8822326148873717,0.5744991336472258,0.2087861520096324,0.3410622288070124,0.9671583632450966,0.8499954518843865,0.405170820103537,1.013443497703004,0.7314206802856926,0.9453357060876121,0.1507667531431944,1.058663194474554,486.3369963369964,798.6080586080586,778.8644688644689,803.8461538461539,907.8021978021978,-0.168030,0.115234,0.888672,3.730927,-18.206024,-1.345825,1,4,1,1,2,50.000000
2024-12-17 14:14:55.380,0.8088876008871521,0.6510842130462573,0.7000543422765216,0.8311225042550621,1.007971656260737,0.2243475155570537,0.1139052792635231,0.2186294848893385,0.8822326148873717,0.5744991336472258,0.2087861520096324,0.3410622288070124,0.9671583632450966,0.8499954518843865,0.405170820103537,1.013443497703004,0.7314206802856926,0.9453357060876121,0.1507667531431944,1.058663194474554,939.2307692307693,803.040293040293,786.1172161172161,886.4468864468864,1085.897435897436,-0.276917,-0.010010,0.925110,0.306549,-1.158905,0.142059,1,4,1,1,2,50.000000
2024-12-17 14:14:55.433,,,,,,,,,,,,,,,,,,,,,,,,,,,,,,,,,,,,,,/muse/elements/blink
2024-12-17 14:14:55.880,0.8088876008871521,0.6510842130462573,1.101170302217576,0.8311225042550621,1.007971656260737,0.2243475155570537,0.8856872559172864,0.2186294848893385,0.8822326148873717,0.5744991336472258,0.750373022082201,0.3410622288070124,0.9671583632450966,0.8499954518843865,0.51509162335924,1.013443497703004,0.7314206802856926,0.9453357060876121,0.139763767678302,1.058663194474554,1232.967032967033,804.6520146520147,789.3406593406594,830.4395604395604,967.8388278388279,-0.272217,0.198364,1.201660,8.194580,-5.114136,2.250519,1,4,1,1,2,50.000000
2024-12-17 14:14:56.380,0.8088876008871521,0.690457951115366,1.19644988704187,0.8311225042550621,1.007971656260737,0.2114592142835406,0.9595958817391166,0.2186294848893385,0.8822326148873717,0.5624568662622398,0.750373022082201,0.3410622288070124,0.9671583632450966,0.8393559565531161,0.5913733093873832,1.013443497703004,0.7314206802856926,0.9219364891922976,0.2710588183670839,1.058663194474554,770.4029304029305,795.3846153846154,797.3992673992674,805.0549450549451,775.6410256410256,-0.535645,0.175476,1.836731,-1.801910,7.716064,7.626343,1,4,1,1,2,50.000000
2024-12-17 14:14:56.880,0.8088876008871521,0.690457951115366,1.191154935581727,0.8311225042550621,1.007971656260737,0.2114592142835406,0.9357282022285623,0.2186294848893385,0.8822326148873717,0.5624568662622398,0.750373022082201,0.3410622288070124,0.9671583632450966,0.8393559565531161,0.5859200942316389,1.013443497703004,0.7314206802856926,0.9219364891922976,0.2799345542862919,1.058663194474554,973.8827838827839,805.4578754578755,807.0695970695971,877.5824175824176,598.3516483516484,-0.342651,0.146240,1.261353,2.078552,-5.727234,-3.229980,1,4,1,1,2,50.000000
2024-12-17 14:14:56.887,,,,,,,,,,,,,,,,,,,,,,,,,,,,,,,,,,,,,,/muse/elements/blink
2024-12-17 14:14:57.076,,,,,,,,,,,,,,,,,,,,,,,,,,,,,,,,,,,,,,/muse/elements/blink
2024-12-17 14:14:57.380,0.8088876008871521,0.690457951115366,1.039325365620365,0.8311225042550621,1.007971656260737,0.2114592142835406,0.7189441645959861,0.2186294848893385,0.8822326148873717,0.5624568662622398,0.6117340114005196,0.3410622288070124,0.9671583632450966,0.8393559565531161,0.7923347052825075,1.013443497703004,0.7314206802856926,0.9219364891922976,0.6872059746009921,1.058663194474554,1089.52380952381,795.3846153846154,806.6666666666667,850.1831501831502,529.047619047619,-0.266296,0.157349,1.057678,1.854248,7.125397,2.213135,1,4,1,1,2,50.000000
2024-12-17 14:14:57.692,,,,,,,,,,,,,,,,,,,,,,,,,,,,,,,,,,,,,,/muse/elements/blink
2024-12-17 14:14:57.890,0.8088876008871521,0.690457951115366,0.7851916615109907,0.8311225042550621,1.007971656260737,0.2114592142835406,0.4306493604464139,0.2186294848893385,0.8822326148873717,0.5624568662622398,0.4670914066961547,0.3410622288070124,0.9671583632450966,0.8393559565531161,0.809630023382397,1.013443497703004,0.7314206802856926,0.9219364891922976,0.6391688569378083,1.058663194474554,716.007326007326,819.96336996337,785.3113553113553,748.2417582417582,448.8644688644689,-0.236572,0.058533,0.911133,6.923523,4.643097,-2.272949,1,4,1,1,2,50.000000
2024-12-17 14:14:58.111,,,,,,,,,,,,,,,,,,,,,,,,,,,,,,,,,,,,,,/muse/elements/blink
2024-12-17 14:14:58.380,0.8088876008871521,0.690457951115366,0.7464255250508371,0.8311225042550621,1.007971656260737,0.2114592142835406,0.4089276435139306,0.2186294848893385,0.8822326148873717,0.5624568662622398,0.4682809493631415,0.3410622288070124,0.9671583632450966,0.8393559565531161,0.7558178783379526,1.013443497703004,0.7314206802856926,0.9219364891922976,0.5545380199442616,1.058663194474554,662.8205128205128,786.1172161172161,791.3553113553114,737.3626373626374,533.0769230769231,-0.227600,0.087097,0.814697,2.878571,-3.611298,-2.945862,1,4,1,1,2,50.000000
2024-12-17 14:14:58.621,,,,,,,,,,,,,,,,,,,,,,,,,,,,,,,,,,,,,,/muse/elements/blink
2024-12-17 14:14:58.809,,,,,,,,,,,,,,,,,,,,,,,,,,,,,,,,,,,,,,/muse/elements/blink
2024-12-17 14:14:58.880,0.8088876008871521,0.690457951115366,0.8731043831867705,0.8311225042550621,1.007971656260737,0.2114592142835406,0.3440522927113418,0.2186294848893385,0.8822326148873717,0.5624568662622398,0.4520511489689281,0.3410622288070124,0.9671583632450966,0.8393559565531161,0.5599181657144565,1.013443497703004,0.7314206802856926,0.9219364891922976,0.21794247616138,1.058663194474554,644.2857142857143,794.1758241758242,779.2673992673992,784.9084249084249,827.2161172161173,-0.231018,0.053406,0.699402,8.792725,-7.170258,8.553467,1,2,1,1,2,50.000000
2024-12-17 14:14:59.382,0.8088876008871521,0.690457951115366,0.9846277443689064,0.8311225042550621,1.007971656260737,0.2114592142835406,0.4191023658491744,0.2186294848893385,0.8822326148873717,0.5624568662622398,0.4183823953013883,0.3410622288070124,0.9671583632450966,0.8393559565531161,0.4626753796113899,1.013443497703004,0.7314206802856926,0.9219364891922976,0.1762574358825867,1.058663194474554,666.8498168498169,778.0586080586081,776.8498168498169,790.5494505494506,730.9157509157509,-0.216064,0.121887,0.761414,1.495361,-8.089905,-4.964600,1,4,1,1,2,50.000000
2024-12-17 14:14:59.880,0.8088876008871521,0.6351422812963164,1.133550988166436,0.8311225042550621,1.007971656260737,0.3914495081587965,0.4253867046407989,0.2186294848893385,0.8822326148873717,0.7143065077502533,0.632071907670145,0.3410622288070124,0.9671583632450966,0.9563307089770157,0.4540622070306886,1.013443497703004,0.7314206802856926,0.7433918649657992,0.2569161900445188,1.058663194474554,977.5091575091575,776.4468864468864,809.8901098901099,804.6520146520147,825.6043956043957,-0.346863,-0.003723,0.956299,0.396271,-2.542114,0.635529,1,2,1,1,2,50.000000
2024-12-17 14:15:00.380,0.8088876008871521,0.6215006129343812,1.0392515690425,0.8311225042550621,1.007971656260737,0.4101359567989388,0.4376369736581834,0.2186294848893385,0.8822326148873717,0.7378138151350271,0.6876324030073468,0.3410622288070124,0.9671583632450966,0.9473442564797291,0.4964328461947655,1.013443497703004,0.7314206802856926,0.8031329466803225,0.2990337918059814,1.058663194474554,753.4798534798535,800.6227106227107,798.2051282051282,867.9120879120879,1566.190476190476,-0.304016,0.189514,1.126099,2.534637,-8.179626,-0.508423,1,2,1,1,2,50.000000
2024-12-17 14:15:00.880,0.8088876008871521,0.5817618145022846,0.88671504948355,0.8311225042550621,1.007971656260737,0.3456680264428903,0.5421427252067738,0.2186294848893385,0.8822326148873717,0.7378138151350271,0.6876324030073468,0.3410622288070124,0.9671583632450966,0.9934881740513456,0.6022542214698974,1.013443497703004,0.7314206802856926,0.8992728251282233,0.3794685635554227,1.058663194474554,834.8717948717949,805.4578754578755,807.8754578754579,799.8168498168499,539.92673992674,-0.320740,0.050354,0.989014,0.613098,10.729218,1.652374,1,2,1,1,2,50.000000
2024-12-17 14:15:01.055,,,,,,,,,,,,,,,,,,,,,,,,,,,,,,,,,,,,,,/muse/elements/blink
2024-12-17 14:15:01.380,0.8088876008871521,0.4446873485776553,0.8650592292029935,0.8311225042550621,1.007971656260737,0.3291717293891562,0.6639311151810464,0.2186294848893385,0.8822326148873717,0.5726421966805885,0.6206502337980716,0.3410622288070124,0.9671583632450966,0.9507015531489277,0.5977994206672689,1.013443497703004,0.7314206802856926,0.9154168478500557,0.3937199319419802,1.058663194474554,730.9157509157509,797.3992673992674,799.8168498168499,794.1758241758242,689.8168498168499,-0.564026,0.162292,1.764526,-0.201874,9.405823,-7.820740,1,4,1,1,2,50.000000
2024-12-17 14:15:01.881,0.8088876008871521,0.3027122524554893,0.8932506845001094,0.8311225042550621,1.007971656260737,0.2403136575595476,0.7619074868396429,0.2186294848893385,0.8822326148873717,0.4273375067878047,0.5170636227663248,0.3410622288070124,0.9671583632450966,0.960363332373507,0.6789843599727052,1.013443497703004,0.7314206802856926,0.9285630494856123,0.4596791361515984,1.058663194474554,1021.025641025641,786.5201465201466,813.5164835164835,832.8571428571429,757.9120879120879,-0.342102,0.150696,1.261658,6.474915,-0.052338,6.751556,1,2,1,1,2,50.000000
2024-12-17 14:15:02.273,,,,,,,,,,,,,,,,,,,,,,,,,,,,,,,,,,,,,,/muse/elements/blink
2024-12-17 14:15:02.380,0.8088876008871521,0.3027122524554893,0.9743723362681298,0.8311225042550621,1.007971656260737,0.2403136575595476,0.6217297949701523,0.2186294848893385,0.8822326148873717,0.4273375067878047,0.4225381088325254,0.3410622288070124,0.9671583632450966,0.960363332373507,0.6751718233717957,1.013443497703004,0.7314206802856926,0.9285630494856123,0.4232546884969188,1.058663194474554,622.1245421245421,800.2197802197802,796.996336996337,785.7142857142858,764.7619047619048,-0.208984,0.047791,0.901306,2.886047,-1.181335,2.893524,1,2,1,1,2,50.000000
2024-12-17 14:15:02.556,,,,,,,,,,,,,,,,,,,,,,,,,,,,,,,,,,,,,,/muse/elements/blink
2024-12-17 14:15:02.879,0.8088876008871521,0.3027122524554893,0.9661601598869088,0.8311225042550621,1.007971656260737,0.2403136575595476,0.3965660305976376,0.2186294848893385,0.8822326148873717,0.4273375067878047,0.3308048547430569,0.3410622288070124,0.9671583632450966,0.960363332373507,0.8666234755259808,1.013443497703004,0.7314206802856926,0.9285630494856123,0.4889750549178891,1.058663194474554,956.959706959707,807.4725274725275,796.996336996337,816.3369963369963,595.5311355311355,-0.143982,0.079956,0.834778,-0.613098,-4.934692,-6.781464,1,2,1,1,2,50.000000
2024-12-17 14:15:03.259,,,,,,,,,,,,,,,,,,,,,,,,,,,,,,,,,,,,,,/muse/elements/blink
2024-12-17 14:15:03.380,0.8088876008871521,0.3027122524554893,0.9661601598869088,0.8311225042550621,1.007971656260737,0.2403136575595476,0.3965660305976376,0.2186294848893385,0.8822326148873717,0.4273375067878047,0.3308048547430569,0.3410622288070124,0.9671583632450966,0.960363332373507,0.8666234755259808,1.013443497703004,0.7314206802856926,0.9285630494856123,0.4889750549178891,1.058663194474554,777.2527472527473,762.7472527472528,776.0439560439561,749.8534798534798,701.5018315018315,-0.184082,0.050537,0.690247,5.757141,-17.480774,2.198181,1,4,1,1,2,50.000000
2024-12-17 14:15:03.514,,,,,,,,,,,,,,,,,,,,,,,,,,,,,,,,,,,,,,/muse/elements/blink
2024-12-17 14:15:03.880,0.8088876008871521,1.312645088234585,1.076485325497049,0.8311225042550621,1.007971656260737,0.8993635596628013,0.4747970184302076,0.2186294848893385,0.8822326148873717,0.9125484837048382,0.2147569390572246,0.3410622288070124,0.9671583632450966,1.047455504888255,0.9318619510556507,1.013443497703004,0.7314206802856926,0.6847016905219578,0.547784488024072,1.058663194474554,795.7875457875458,771.6117216117216,785.3113553113553,775.6410256410256,1063.736263736264,-0.131287,0.059448,0.682495,1.637421,-9.704895,-7.110443,1,4,1,1,2,50.000000
2024-12-17 14:15:04.380,0.8088876008871521,1.312645088234585,1.076485325497049,0.8311225042550621,1.007971656260737,0.8993635596628013,0.4747970184302076,0.2186294848893385,0.8822326148873717,0.9125484837048382,0.2147569390572246,0.3410622288070124,0.9671583632450966,1.047455504888255,0.9318619510556507,1.013443497703004,0.7314206802856926,0.6847016905219578,0.547784488024072,1.058663194474554,693.8461538461538,782.893772893773,791.3553113553114,792.1611721611722,599.9633699633699,-0.126160,0.032227,0.699280,6.908569,-0.807495,12.792816,1,2,1,1,2,50.000000
2024-12-17 14:15:04.888,0.8088876008871521,1.272234718125105,0.7865874468417978,0.8311225042550621,1.007971656260737,0.8523365052137806,0.5738070233226668,0.2186294848893385,0.8822326148873717,0.9612013646176969,0.4444418038830795,0.3410622288070124,0.9671583632450966,1.081131295560595,0.5609335197561494,1.013443497703004,0.7314206802856926,0.7219091797647252,0.4615234126044423,1.058663194474554,451.2820512820513,797.8021978021978,785.7142857142858,816.3369963369963,851.3919413919414,-0.168335,0.093628,0.728943,2.616882,-8.284302,-13.301239,1,2,1,1,2,50.000000
2024-12-17 14:15:05.015,,,,,,,,,,,,,,,,,,,,,,,,,,,,,,,,,,,,,,/muse/elements/blink
2024-12-17 14:15:05.380,0.8088876008871521,1.346838316884777,0.8378145563883677,0.8311225042550621,1.007971656260737,0.751014559147254,0.6029560245972431,0.2186294848893385,0.8822326148873717,0.9561599506356566,0.5373335480779468,0.3410622288070124,0.9671583632450966,1.124364706694305,0.5739195399292192,1.013443497703004,0.7314206802856926,0.739473479867553,0.659648199541803,1.058663194474554,944.0659340659341,774.0293040293041,820.7692307692308,808.6813186813187,949.3040293040293,-0.348022,0.084534,1.105835,-2.407532,2.773895,3.902893,1,2,1,1,2,50.000000
2024-12-17 14:15:05.885,0.8088876008871521,1.346838316884777,0.8600518537552109,0.8311225042550621,1.007971656260737,0.751014559147254,0.636021314696025,0.2186294848893385,0.8822326148873717,0.9561599506356566,0.7120797059735696,0.3410622288070124,0.9671583632450966,1.124364706694305,0.6033220877035141,1.013443497703004,0.7314206802856926,0.739473479867553,0.6789530972733707,1.058663194474554,418.2417582417582,777.2527472527473,798.2051282051282,914.6520146520147,1179.377289377289,-0.204407,0.185425,1.083801,7.215118,-17.196655,1.031799,1,2,1,1,2,45.000000
2024-12-17 14:15:05.946,,,,,,,,,,,,,,,,,,,,,,,,,,,,,,,,,,,,,,/muse/elements/blink
2024-12-17 14:15:06.380,0.8088876008871521,1.346838316884777,0.9378234809221523,0.8311225042550621,1.007971656260737,0.751014559147254,0.6657212901307936,0.2186294848893385,0.8822326148873717,0.9561599506356566,0.7075068483886425,0.3410622288070124,0.9671583632450966,1.124364706694305,0.6514326988410818,1.013443497703004,0.7314206802856926,0.739473479867553,0.6288964734661215,1.058663194474554,335.2380952380952,802.2344322344322,862.2710622710623,685.3846153846154,657.1794871794872,-0.308472,0.127197,1.300842,2.601929,1.525269,14.691925,1,2,1,1,2,45.000000
2024-12-17 14:15:06.559,,,,,,,,,,,,,,,,,,,,,,,,,,,,,,,,,,,,,,/muse/elements/blink
2024-12-17 14:15:06.880,0.8088876008871521,1.346838316884777,0.9661884323834168,0.8311225042550621,1.007971656260737,0.751014559147254,0.6847587161565233,0.2186294848893385,0.8822326148873717,0.9561599506356566,0.7019965705554599,0.3410622288070124,0.9671583632450966,1.124364706694305,0.6815758234551406,1.013443497703004,0.7314206802856926,0.739473479867553,0.5352508446630321,1.058663194474554,1099.59706959707,813.5164835164835,804.2490842490843,813.5164835164835,1202.344322344322,-0.363037,0.136353,1.233948,7.387085,6.459961,-9.263763,1,2,1,1,2,45.000000
2024-12-17 14:15:07.380,0.8088876008871521,1.346838316884777,1.057368974315458,0.8311225042550621,1.007971656260737,0.751014559147254,0.708858969861314,0.2186294848893385,0.8822326148873717,0.9561599506356566,0.556418729859648,0.3410622288070124,0.9671583632450966,1.124364706694305,0.7207506442124326,1.013443497703004,0.7314206802856926,0.739473479867553,0.4964770368076134,1.058663194474554,900.952380952381,751.4652014652015,805.0549450549451,732.5274725274726,655.9706959706959,-0.244995,0.134583,1.091492,5.787048,8.097382,8.254395,1,4,1,1,2,45.000000
2024-12-17 14:15:07.889,0.8088876008871521,1.346838316884777,1.042181812952593,0.8311225042550621,1.007971656260737,0.751014559147254,0.6464265183044894,0.2186294848893385,0.8822326148873717,0.9561599506356566,0.4453730102580969,0.3410622288070124,0.9671583632450966,1.124364706694305,0.7167762159778919,1.013443497703004,0.7314206802856926,0.739473479867553,0.5180283732668965,1.058663194474554,780.0732600732601,804.6520146520147,788.5347985347986,858.2417582417582,752.2710622710623,-0.265747,0.057251,0.932922,8.800201,-0.717773,6.086121,1,4,1,1,2,45.000000
2024-12-17 14:15:07.948,,,,,,,,,,,,,,,,,,,,,,,,,,,,,,,,,,,,,,/muse/elements/blink
2024-12-17 14:15:08.380,0.8088876008871521,1.346838316884777,1.14534344247517,0.8311225042550621,1.007971656260737,0.751014559147254,0.8101415278407302,0.2186294848893385,0.8822326148873717,0.9561599506356566,0.671126000686323,0.3410622288070124,0.9671583632450966,1.124364706694305,0.643658736810038,1.013443497703004,0.7314206802856926,0.739473479867553,0.2562577869804812,1.058663194474554,827.6190476190476,774.8351648351648,812.3076923076924,809.4871794871796,787.3260073260074,-0.112549,0.125732,0.817932,-11.693726,11.648865,-7.416992,1,4,1,1,2,45.000000
2024-12-17 14:15:08.880,0.8088876008871521,1.346838316884777,1.034545479958769,0.8311225042550621,1.007971656260737,0.751014559147254,0.7123311268470347,0.2186294848893385,0.8822326148873717,0.9561599506356566,0.671126000686323,0.3410622288070124,0.9671583632450966,1.124364706694305,0.6454153872552344,1.013443497703004,0.7314206802856926,0.739473479867553,0.2485306713265228,1.058663194474554,794.5787545787546,770,812.7106227106227,836.4835164835165,472.2344322344322,-0.238708,0.024109,0.703979,13.577881,-24.905243,11.050720,1,2,1,1,2,45.000000
2024-12-17 14:15:09.380,0.8088876008871521,1.346838316884777,0.959237503725069,0.8311225042550621,1.007971656260737,0.751014559147254,0.7000350851507315,0.2186294848893385,0.8822326148873717,0.9561599506356566,0.6429764950474949,0.3410622288070124,0.9671583632450966,1.124364706694305,0.6490042163659266,1.013443497703004,0.7314206802856926,0.739473479867553,0.2302033025324238,1.058663194474554,803.040293040293,809.4871794871796,814.7252747252747,780.4761904761905,801.025641025641,-0.326111,0.104065,0.789307,5.136566,-13.084412,-28.172607,1,2,1,1,2,45.000000
2024-12-17 14:15:09.680,,,,,,,,,,,,,,,,,,,,,,,,,,,,,,,,,,,,,,/muse/elements/blink
2024-12-17 14:15:09.880,0.8088876008871521,1.346838316884777,0.771143124416075,0.8311225042550621,1.007971656260737,0.751014559147254,0.3980636406244238,0.2186294848893385,0.8822326148873717,0.9561599506356566,0.2347540938992621,0.3410622288070124,0.9671583632450966,1.124364706694305,0.6371819456023123,1.013443497703004,0.7314206802856926,0.739473479867553,0.2604144514469847,1.058663194474554,826.8131868131868,769.1941391941392,806.2637362637363,773.2234432234433,710.3663003663004,-0.293396,0.035461,0.825073,-4.919739,-2.557068,3.828125,1,2,1,1,2,45.000000
2024-12-17 14:15:10.380,0.8088876008871521,1.346838316884777,0.771143124416075,0.8311225042550621,1.007971656260737,0.751014559147254,0.3980636406244238,0.2186294848893385,0.8822326148873717,0.9561599506356566,0.2347540938992621,0.3410622288070124,0.9671583632450966,1.124364706694305,0.6371819456023123,1.013443497703004,0.7314206802856926,0.739473479867553,0.2604144514469847,1.058663194474554,787.7289377289378,767.985347985348,801.8315018315019,862.2710622710623,797.3992673992674,-0.347595,0.129578,0.963623,3.775787,-3.529053,-0.867310,1,2,1,1,2,45.000000
2024-12-17 14:15:10.477,,,,,,,,,,,,,,,,,,,,,,,,,,,,,,,,,,,,,,/muse/elements/blink
2024-12-17 14:15:10.887,0.8088876008871521,1.346838316884777,1.013093086253481,0.8311225042550621,1.007971656260737,0.751014559147254,0.5255708635296846,0.2186294848893385,0.8822326148873717,0.9561599506356566,0.4142021268476528,0.3410622288070124,0.9671583632450966,1.124364706694305,0.5612630319192785,1.013443497703004,0.7314206802856926,0.739473479867553,0.2949702500609903,1.058663194474554,777.2527472527473,814.7252747252747,807.8754578754579,786.9230769230769,820.7692307692308,-0.423157,0.077820,1.160767,4.411316,0.067291,3.693542,1,2,1,1,2,45.000000
2024-12-17 14:15:11.379,0.8088876008871521,1.346838316884777,1.013093086253481,0.8311225042550621,1.007971656260737,0.751014559147254,0.5255708635296846,0.2186294848893385,0.8822326148873717,0.9561599506356566,0.4142021268476528,0.3410622288070124,0.9671583632450966,1.124364706694305,0.5612630319192785,1.013443497703004,0.7314206802856926,0.739473479867553,0.2949702500609903,1.058663194474554,1024.652014652015,831.2454212454213,806.2637362637363,844.5421245421246,783.6996336996338,-0.699890,0.121277,1.710388,-2.639313,4.695435,1.585083,1,2,1,1,2,45.000000
2024-12-17 14:15:11.880,0.8088876008871521,1.346838316884777,0.8180947313731446,0.8311225042550621,1.007971656260737,0.751014559147254,0.4132170087571802,0.2186294848893385,0.8822326148873717,0.9561599506356566,0.4378376117592607,0.3410622288070124,0.9671583632450966,1.124364706694305,0.4722817896221685,1.013443497703004,0.7314206802856926,0.739473479867553,0.1630512191438317,1.058663194474554,836.0805860805862,822.7838827838829,808.6813186813187,807.4725274725275,902.967032967033,-0.415283,0.171204,1.250122,2.736511,3.521576,13.704987,1,2,1,1,2,45.000000
2024-12-17 14:15:12.380,0.8088876008871521,1.009427693749455,0.5206138284691995,0.8311225042550621,1.007971656260737,0.7011301810734696,0.3042206922893416,0.2186294848893385,0.8822326148873717,0.8600151247846133,0.4364826280422946,0.3410622288070124,0.9671583632450966,1.102948501091333,0.4936553213388443,1.013443497703004,0.7314206802856926,0.9784545929698454,0.09646130734879961,1.058663194474554,726.0805860805862,809.0842490842491,800.6227106227107,801.4285714285714,890.4761904761905,-0.416504,0.093018,1.052734,0.912170,2.833710,-1.996307,1,2,1,1,2,45.000000
2024-12-17 14:15:12.886,0.8088876008871521,0.7181673279277954,0.6277503062476564,0.8525318191537351,1.007971656260737,0.4186968054882106,0.3041061976229542,0.8000970064625972,0.8822326148873717,0.8679959819614771,0.4364826280422946,1.259915444351167,0.9671583632450966,1.12241467139925,0.464719321626882,1.39461471848314,0.7314206802856926,0.9246953590384888,0.06233579303211136,1.344475033989486,956.5567765567766,773.6263736263736,787.3260073260074,801.025641025641,613.6630036630037,-0.280945,0.113342,0.844482,1.457977,-1.674805,-2.168274,1,2,1,1,1,45.000000
2024-12-17 14:15:13.039,,,,,,,,,,,,,,,,,,,,,,,,,,,,,,,,,,,,,,/muse/elements/blink
2024-12-17 14:15:13.380,0.8088876008871521,0.7181673279277954,0.619470874089956,0.8525318191537351,1.007971656260737,0.4186968054882106,0.582001235753738,0.8000970064625972,0.8822326148873717,0.8679959819614771,0.495758050699189,1.259915444351167,0.9671583632450966,1.12241467139925,0.5245468538711801,1.39461471848314,0.7314206802856926,0.9246953590384888,0.1446365735063538,1.344475033989486,614.8717948717949,803.4432234432235,786.9230769230769,778.4615384615385,621.3186813186813,-0.269409,0.042175,0.856567,5.293579,0.702820,-3.626251,1,2,1,1,1,45.000000
2024-12-17 14:15:13.626,,,,,,,,,,,,,,,,,,,,,,,,,,,,,,,,,,,,,,/muse/elements/blink
2024-12-17 14:15:13.880,0.8088876008871521,0.6072326440238349,0.6947054643370771,0.8525318191537351,1.007971656260737,0.177890844573386,0.744497664559597,0.8000970064625972,0.8822326148873717,0.7761243976270045,0.4539523662417672,1.259915444351167,0.9671583632450966,1.162939641531032,0.5210952368295851,1.39461471848314,0.7314206802856926,0.8216653666586076,0.1807461391224652,1.344475033989486,737.3626373626374,801.4285714285714,775.6410256410256,772.8205128205128,811.0989010989011,-0.236511,0.085022,0.768188,2.056122,-2.579498,-8.269348,1,2,1,1,1,45.000000
2024-12-17 14:15:14.388,0.8088876008871521,0.4943227703948055,0.6450660308522421,0.8525318191537351,1.007971656260737,0.1954685204792009,0.8761557496953336,0.8000970064625972,0.8822326148873717,0.7148200458929777,0.451684285789106,1.259915444351167,0.9671583632450966,1.185399866619866,0.5734590636437989,1.39461471848314,0.7314206802856926,0.7621512992107501,0.2580474075661543,1.344475033989486,730.5128205128206,800.2197802197802,782.4908424908425,783.2967032967033,535.4945054945055,-0.197449,0.074585,0.713745,2.871094,-24.665985,10.235748,1,2,1,1,1,45.000000
2024-12-17 14:15:14.880,0.8088876008871521,0.4943227703948055,0.6932827622460068,0.8525318191537351,1.007971656260737,0.1954685204792009,0.8414030257907755,0.8000970064625972,0.8822326148873717,0.7148200458929777,0.3252309193117754,1.259915444351167,0.9671583632450966,1.185399866619866,0.5265510847941859,1.39461471848314,0.7314206802856926,0.7621512992107501,0.2455253816201083,1.344475033989486,744.2124542124542,826.007326007326,801.8315018315019,802.2344322344322,733.7362637362637,-0.371155,0.135803,0.921570,12.172241,-7.977753,-7.745972,1,2,1,1,1,45.000000
2024-12-17 14:15:15.174,,,,,,,,,,,,,,,,,,,,,,,,,,,,,,,,,,,,,,/muse/elements/blink
2024-12-17 14:15:15.380,0.8088876008871521,0.4943227703948055,0.6932827622460068,0.8525318191537351,1.007971656260737,0.1954685204792009,0.8414030257907755,0.8000970064625972,0.8822326148873717,0.7148200458929777,0.3252309193117754,1.259915444351167,0.9671583632450966,1.185399866619866,0.5265510847941859,1.39461471848314,0.7314206802856926,0.7621512992107501,0.2455253816201083,1.344475033989486,1020.21978021978,813.919413919414,801.8315018315019,786.9230769230769,856.6300366300367,-0.442139,0.056946,1.128662,0.605621,-5.241241,1.226196,1,2,1,1,1,45.000000
2024-12-17 14:15:15.454,,,,,,,,,,,,,,,,,,,,,,,,,,,,,,,,,,,,,,/muse/elements/blink
2024-12-17 14:15:15.686,,,,,,,,,,,,,,,,,,,,,,,,,,,,,,,,,,,,,,/muse/elements/blink
2024-12-17 14:15:15.886,0.8088876008871521,0.4943227703948055,0.6932827622460068,0.8525318191537351,1.007971656260737,0.1954685204792009,0.8414030257907755,0.8000970064625972,0.8822326148873717,0.7148200458929777,0.3252309193117754,1.259915444351167,0.9671583632450966,1.185399866619866,0.5265510847941859,1.39461471848314,0.7314206802856926,0.7621512992107501,0.2455253816201083,1.344475033989486,813.5164835164835,793.3699633699634,807.4725274725275,833.6630036630037,820.3663003663004,-0.145630,0.115845,0.882141,2.175751,-0.770111,1.330872,1,2,1,1,2,45.000000
2024-12-17 14:15:16.380,0.8088876008871521,0.4943227703948055,0.6932827622460068,0.8525318191537351,1.007971656260737,0.1954685204792009,0.8414030257907755,0.8000970064625972,0.8822326148873717,0.7148200458929777,0.3252309193117754,1.259915444351167,0.9671583632450966,1.185399866619866,0.5265510847941859,1.39461471848314,0.7314206802856926,0.7621512992107501,0.2455253816201083,1.344475033989486,846.1538461538462,779.2673992673992,795.3846153846154,807.8754578754579,821.5750915750916,-0.295044,0.207153,1.079529,11.708679,11.626434,10.826416,1,2,1,1,2,45.000000
2024-12-17 14:15:16.484,,,,,,,,,,,,,,,,,,,,,,,,,,,,,,,,,,,,,,/muse/elements/blink
2024-12-17 14:15:16.880,0.8088876008871521,0.4943227703948055,0.6917769834296991,0.8525318191537351,1.007971656260737,0.1954685204792009,0.3137943723197728,0.8000970064625972,0.8822326148873717,0.7148200458929777,0.3226080491811914,1.259915444351167,0.9671583632450966,1.185399866619866,0.4189361422883276,1.39461471848314,0.7314206802856926,0.7621512992107501,-0.02913763934772549,1.344475033989486,767.5824175824176,787.3260073260074,818.3516483516484,778.0586080586081,926.7399267399268,-0.449280,0.232788,1.692078,11.678772,-19.035950,-38.946686,1,2,1,1,2,45.000000
2024-12-17 14:15:17.380,0.8088876008871521,0.4943227703948055,0.7244916226294692,0.8525318191537351,1.007971656260737,0.1954685204792009,0.2994379492414214,0.8000970064625972,0.8822326148873717,0.7148200458929777,0.6043704456537876,1.259915444351167,0.9671583632450966,1.185399866619866,0.6057213165229466,1.39461471848314,0.7314206802856926,0.7621512992107501,0.2054674608038777,1.344475033989486,956.1538461538462,785.7142857142858,819.1575091575091,817.5457875457876,702.3076923076924,-0.134338,0.120728,1.034485,2.676697,-1.360779,4.852448,1,2,1,1,2,45.000000
2024-12-17 14:15:17.880,0.8088876008871521,0.4943227703948055,0.9100964617001004,0.8525318191537351,1.007971656260737,0.1954685204792009,0.3689899258888817,0.8000970064625972,0.8822326148873717,0.7148200458929777,0.7842709449468904,1.259915444351167,0.9671583632450966,1.185399866619866,0.7061978172365505,1.39461471848314,0.7314206802856926,0.7621512992107501,0.3711118583527316,1.344475033989486,904.1758241758242,815.934065934066,795.7875457875458,800.6227106227107,686.5934065934066,-0.159241,-0.091614,0.878784,-0.134583,5.809479,27.439880,1,2,1,1,2,45.000000
2024-12-17 14:15:18.211,,,,,,,,,,,,,,,,,,,,,,,,,,,,,,,,,,,,,,/muse/elements/blink
2024-12-17 14:15:18.384,0.8088876008871521,0.4943227703948055,0.9818241802184963,0.8525318191537351,1.007971656260737,0.1954685204792009,0.4784602914344261,0.8000970064625972,0.8822326148873717,0.7148200458929777,0.7842709449468904,1.259915444351167,0.9671583632450966,1.185399866619866,0.7588944843196648,1.39461471848314,0.7314206802856926,0.7621512992107501,0.5526970090207747,1.344475033989486,976.7032967032967,809.4871794871796,788.9377289377289,790.952380952381,1002.490842490843,-0.209778,0.118042,0.815613,-3.222504,6.684265,-6.833801,1,2,1,1,2,45.000000
2024-12-17 14:15:18.882,0.8088876008871521,0.4943227703948055,0.954574484561815,0.8525318191537351,1.007971656260737,0.1954685204792009,0.4822305127915357,0.8000970064625972,0.8822326148873717,0.7148200458929777,0.7893812628696354,1.259915444351167,0.9671583632450966,1.185399866619866,0.7346416087176064,1.39461471848314,0.7314206802856926,0.7621512992107501,0.5579283164979657,1.344475033989486,632.1978021978022,784.9084249084249,818.3516483516484,797.3992673992674,762.7472527472528,-0.193665,0.107971,0.823425,5.659943,-19.133148,1.330872,1,2,1,1,2,45.000000
2024-12-17 14:15:19.340,,,,,,,,,,,,,,,,,,,,,,,,,,,,,,,,,,,,,,/muse/elements/blink
2024-12-17 14:15:19.380,0.8088876008871521,0.4943227703948055,0.9453469199175256,0.8525318191537351,1.007971656260737,0.1954685204792009,0.6711963232383095,0.8000970064625972,0.8822326148873717,0.7148200458929777,0.5967157626995852,1.259915444351167,0.9671583632450966,1.185399866619866,0.6386505123557794,1.39461471848314,0.7314206802856926,0.7621512992107501,0.5294674494568832,1.344475033989486,918.2783882783883,827.2161172161173,792.1611721611722,803.8461538461539,625.7509157509157,-0.252075,0.120178,0.998535,-0.702820,-8.396454,-9.861908,1,2,1,1,2,45.000000
2024-12-17 14:15:19.879,0.8088876008871521,0.4943227703948055,1.026864886018095,0.8525318191537351,1.007971656260737,0.1954685204792009,0.7918834426775593,0.8000970064625972,0.8822326148873717,0.7148200458929777,0.6986012642144618,1.259915444351167,0.9671583632450966,1.185399866619866,0.6939602006616007,1.39461471848314,0.7314206802856926,0.7621512992107501,0.5039325654893038,1.344475033989486,786.9230769230769,802.6373626373627,799.0109890109891,822.7838827838829,856.6300366300367,-0.309937,-0.015747,0.980042,-4.149628,-4.687958,3.110352,1,2,1,1,2,45.000000
2024-12-17 14:15:19.948,,,,,,,,,,,,,,,,,,,,,,,,,,,,,,,,,,,,,,/muse/elements/blink
2024-12-17 14:15:20.382,0.8088876008871521,0.4943227703948055,1.164611752944557,0.8525318191537351,1.007971656260737,0.1954685204792009,0.946395594705155,0.8000970064625972,0.8822326148873717,0.7148200458929777,0.6986012642144618,1.259915444351167,0.9671583632450966,1.185399866619866,0.6670954686339645,1.39461471848314,0.7314206802856926,0.7621512992107501,0.5361490804792357,1.344475033989486,850.989010989011,836.4835164835165,805.0549450549451,814.7252747252747,761.5384615384615,-0.230103,0.162109,1.045227,4.351501,-15.133057,2.534637,1,2,1,1,2,45.000000
2024-12-17 14:15:20.560,,,,,,,,,,,,,,,,,,,,,,,,,,,,,,,,,,,,,,/muse/elements/blink
2024-12-17 14:15:20.880,0.8088876008871521,0.4943227703948055,1.156593978090648,0.8525318191537351,1.007971656260737,0.1954685204792009,0.9458800843073594,0.8000970064625972,0.8822326148873717,0.7148200458929777,0.6655273102189853,1.259915444351167,0.9671583632450966,1.185399866619866,0.790899968526823,1.39461471848314,0.7314206802856926,0.7621512992107501,0.6097296469070901,1.344475033989486,793.7728937728938,819.5604395604396,790.5494505494506,788.9377289377289,843.7362637362637,-0.126953,0.019836,0.846802,0.321503,-4.770203,6.893616,1,2,1,1,2,45.000000
2024-12-17 14:15:21.382,0.8088876008871521,0.4943227703948055,0.5770845118849202,0.8525318191537351,1.007971656260737,0.1954685204792009,0.4099970835672738,0.8000970064625972,0.8822326148873717,0.7148200458929777,0.3860963076954598,1.259915444351167,0.9671583632450966,1.185399866619866,0.4861575893367261,1.39461471848314,0.7314206802856926,0.7621512992107501,0.1527049444625129,1.344475033989486,667.2527472527473,839.3040293040293,792.967032967033,773.2234432234433,886.8498168498169,-0.375183,0.131836,1.213257,-3.715973,3.312225,-11.918030,1,2,1,1,2,45.000000
2024-12-17 14:15:21.542,,,,,,,,,,,,,,,,,,,,,,,,,,,,,,,,,,,,,,/muse/elements/blink
2024-12-17 14:15:21.880,0.8088876008871521,0.4943227703948055,0.9688945106281508,0.8525318191537351,1.007971656260737,0.1954685204792009,0.6131028808186152,0.8000970064625972,0.8822326148873717,0.7148200458929777,0.4671653393956732,1.259915444351167,0.9671583632450966,1.185399866619866,0.5790919345772954,1.39461471848314,0.7314206802856926,0.7621512992107501,0.1587985983188898,1.344475033989486,864.6886446886447,801.025641025641,794.1758241758242,805.8608058608058,850.1831501831502,-0.293518,0.136047,1.029053,4.149628,7.693634,1.532745,1,2,1,1,2,45.000000
2024-12-17 14:15:22.380,0.8088876008871521,0.4943227703948055,0.9438648165243384,0.8525318191537351,1.007971656260737,0.1954685204792009,0.6054365512143767,0.8000970064625972,0.8822326148873717,0.7148200458929777,0.4702965468359814,1.259915444351167,0.9671583632450966,1.185399866619866,0.632849915423308,1.39461471848314,0.7314206802856926,0.7621512992107501,0.1752243179133471,1.344475033989486,765.5677655677656,793.3699633699634,796.996336996337,818.7545787545788,682.1611721611722,-0.160645,0.065979,0.879517,-0.979462,2.788849,0.829926,1,2,1,1,2,45.000000
2024-12-17 14:15:22.666,,,,,,,,,,,,,,,,,,,,,,,,,,,,,,,,,,,,,,/muse/elements/blink
2024-12-17 14:15:22.880,0.8088876008871521,0.4943227703948055,1.059016662041849,0.8525318191537351,1.007971656260737,0.1954685204792009,0.6275996746732111,0.8000970064625972,0.8822326148873717,0.7148200458929777,0.5416506546770977,1.259915444351167,0.9671583632450966,1.185399866619866,0.6290825549085284,1.39461471848314,0.7314206802856926,0.7621512992107501,0.2520293746502189,1.344475033989486,940.4395604395605,772.4175824175825,792.5641025641025,812.7106227106227,750.6593406593407,-0.133606,0.108521,0.814697,-1.846771,-12.643280,-5.869293,1,2,1,1,2,45.000000
2024-12-17 14:15:23.369,,,,,,,,,,,,,,,,,,,,,,,,,,,,,,,,,,,,,,/muse/elements/blink
2024-12-17 14:15:23.380,0.8088876008871521,0.4943227703948055,1.001348918292574,0.8525318191537351,1.007971656260737,0.1954685204792009,0.5518170709553059,0.8000970064625972,0.8822326148873717,0.7148200458929777,0.5249846585001482,1.259915444351167,0.9671583632450966,1.185399866619866,0.6212416641431181,1.39461471848314,0.7314206802856926,0.7621512992107501,0.2993530989296791,1.344475033989486,785.7142857142858,787.7289377289378,791.3553113553114,813.919413919414,945.6776556776557,-0.110229,0.088623,0.797119,4.157104,-17.660217,6.108551,1,2,1,1,2,45.000000
2024-12-17 14:15:23.879,0.8088876008871521,0.4943227703948055,1.095089635025414,0.8525318191537351,1.007971656260737,0.1954685204792009,0.5127288016184337,0.8000970064625972,0.8822326148873717,0.7148200458929777,0.4950879749477303,1.259915444351167,0.9671583632450966,1.185399866619866,0.468722714894908,1.39461471848314,0.7314206802856926,0.7621512992107501,0.3733832027128637,1.344475033989486,576.5934065934066,796.1904761904763,792.1611721611722,781.2820512820513,734.1391941391942,-0.134094,0.145020,0.788513,5.166473,-16.852722,-9.764709,1,2,1,1,2,45.000000
2024-12-17 14:15:24.380,0.8088876008871521,0.4943227703948055,1.095089635025414,0.8525318191537351,1.007971656260737,0.1954685204792009,0.5127288016184337,0.8000970064625972,0.8822326148873717,0.7148200458929777,0.4950879749477303,1.259915444351167,0.9671583632450966,1.185399866619866,0.468722714894908,1.39461471848314,0.7314206802856926,0.7621512992107501,0.3733832027128637,1.344475033989486,882.8205128205128,793.7728937728938,793.3699633699634,790.952380952381,883.6263736263736,-0.253418,0.061462,0.899719,0.575714,-0.598145,2.736511,1,2,1,1,2,45.000000
2024-12-17 14:15:24.500,,,,,,,,,,,,,,,,,,,,,,,,,,,,,,,,,,,,,,/muse/elements/blink
2024-12-17 14:15:24.880,0.8088876008871521,0.4943227703948055,1.095089635025414,0.8525318191537351,1.007971656260737,0.1954685204792009,0.5127288016184337,0.8000970064625972,0.8822326148873717,0.7148200458929777,0.4950879749477303,1.259915444351167,0.9671583632450966,1.185399866619866,0.468722714894908,1.39461471848314,0.7314206802856926,0.7621512992107501,0.3733832027128637,1.344475033989486,1421.538461538462,842.5274725274726,798.2051282051282,853.0036630036631,789.7435897435897,-0.584167,0.130676,1.188843,6.856232,15.140533,-39.679413,1,2,1,1,2,45.000000
2024-12-17 14:15:25.380,0.8088876008871521,0.4943227703948055,1.095089635025414,0.8525318191537351,1.007971656260737,0.1954685204792009,0.5127288016184337,0.8000970064625972,0.8822326148873717,0.7148200458929777,0.4950879749477303,1.259915444351167,0.9671583632450966,1.185399866619866,0.468722714894908,1.39461471848314,0.7314206802856926,0.7621512992107501,0.3733832027128637,1.344475033989486,523.4065934065934,803.8461538461539,788.1318681318681,808.6813186813187,564.1025641025641,-0.381287,0.230347,1.199585,12.837677,-8.732910,-65.459442,1,2,1,1,2,45.000000
2024-12-17 14:15:25.520,,,,,,,,,,,,,,,,,,,,,,,,,,,,,,,,,,,,,,/muse/elements/jaw_clench
2024-12-17 14:15:25.879,0.8088876008871521,0.4943227703948055,1.095089635025414,0.8525318191537351,1.007971656260737,0.1954685204792009,0.5127288016184337,0.8000970064625972,0.8822326148873717,0.7148200458929777,0.4950879749477303,1.259915444351167,0.9671583632450966,1.185399866619866,0.468722714894908,1.39461471848314,0.7314206802856926,0.7621512992107501,0.3733832027128637,1.344475033989486,852.6007326007326,826.4102564102565,779.6703296703297,756.7032967032967,857.4358974358975,-0.472900,0.224121,1.156494,28.008118,-14.751740,-98.155518,1,4,1,1,2,45.000000
2024-12-17 14:15:26.384,0.8088876008871521,0.4943227703948055,0.8754890642700847,0.8525318191537351,1.007971656260737,0.1954685204792009,0.9797725174625577,0.8000970064625972,0.8822326148873717,0.7148200458929777,0.07941555417754696,1.259915444351167,0.9671583632450966,1.185399866619866,0.6516142524744379,1.39461471848314,0.7314206802856926,0.7621512992107501,0.5284887169133167,1.344475033989486,871.1355311355312,794.1758241758242,811.9047619047619,799.8168498168499,526.6300366300367,-0.184265,0.215088,1.016052,5.772095,-37.481232,-25.002441,1,4,1,1,2,50.000000
2024-12-17 14:15:26.422,,,,,,,,,,,,,,,,,,,,,,,,,,,,,,,,,,,,,,/muse/elements/blink
