TimeStamp,Delta_TP9,Delta_AF7,Delta_AF8,Delta_TP10,Theta_TP9,Theta_AF7,Theta_AF8,Theta_TP10,Alpha_TP9,Alpha_AF7,Alpha_AF8,Alpha_TP10,Beta_TP9,Beta_AF7,Beta_AF8,Beta_TP10,Gamma_TP9,Gamma_AF7,Gamma_AF8,Gamma_TP10,RAW_TP9,RAW_AF7,RAW_AF8,RAW_TP10,AUX_RIGHT,Accelerometer_X,Accelerometer_Y,Accelerometer_Z,Gyro_X,Gyro_Y,Gyro_Z,HeadBandOn,HSI_TP9,HSI_AF7,HSI_AF8,HSI_TP10,Battery,Elements
2024-12-01 16:05:56.276,,,,,,,,,,,,,,,,,,,,,,,,,,,,,,,,,,,,,,/muse/event/connected Muse-D2D3
2024-12-01 16:05:56.777,1.315500874448022,0.4619066249979762,0.6547576230386302,1.800887857169662,0.956142104312443,0.1763661766543345,0.2924465439721023,1.59773126138888,0.6210633011363146,-0.09557254530178848,0.1741842071871877,1.724216569896812,0.5537090030668872,-0.063618940459034,0.05361228739569292,1.774013425469763,0.2275984144082836,-0.3208838174459472,-0.2361476016741555,0.9558920208684198,823.1868131868132,799.0109890109891,798.2051282051282,860.6593406593407,1052.051282051282,-0.435181,0.084839,0.928223,3.297272,0.583191,1.330872,1,1,1,1,1,65.000000
2024-12-01 16:05:57.287,1.454480685140197,0.5997492181297707,0.7193274028431187,1.800887857169662,1.110504049936641,0.2660427332219659,0.3275230969458465,1.59773126138888,0.9052664899328524,0.02571339768539874,0.1950104468478682,1.724216569896812,0.5754429745361059,-0.006575392028091172,0.03688031953175328,1.774013425469763,0.1986685042846147,-0.3652558855748783,-0.2128029503350371,0.9558920208684198,821.5750915750916,803.4432234432235,805.8608058608058,873.1501831501831,675.3113553113553,-0.428955,0.093994,0.902405,3.715973,-4.770203,0.583191,1,1,1,1,1,65.000000
2024-12-01 16:05:57.785,1.436332707675804,0.5793420793264002,0.6216717293060255,1.800887857169662,1.05676306558216,0.2108419072175682,0.28950936695052,1.59773126138888,1.026141579427265,-0.1234254311312069,0.2135655017983558,1.724216569896812,0.6585705479454195,-0.1094670734664368,-0.03394747317586402,1.774013425469763,0.2421544980288774,-0.4228904339962746,-0.3003039895006198,0.9558920208684198,759.92673992674,800.2197802197802,800.6227106227107,753.4798534798535,626.1538461538462,-0.409668,0.066040,0.923889,2.310333,-1.562653,-2.265472,1,1,1,1,1,65.000000
2024-12-01 16:05:58.277,1.427950831343549,0.1978971939784815,-0.2095089489197894,1.800887857169662,1.179854512245377,-0.1532010758590936,-0.1175034097554582,1.59773126138888,1.129846904837304,-0.1358465465878294,0.2375763544256392,1.724216569896812,0.7219727774915394,-0.1581371194721023,-0.1355358495134628,1.774013425469763,0.3373616231860158,-0.4841478770319148,-0.3876422121000972,0.9558920208684198,820.7692307692308,799.4139194139194,801.4285714285714,779.6703296703297,734.1391941391942,-0.423584,0.078979,0.911255,4.433746,-1.547699,0.097198,1,1,1,1,1,65.000000
2024-12-01 16:05:58.776,1.490920002478263,0.425797562407669,0.3604405416093369,1.800887857169662,1.243735404164815,0.0734887249211008,-0.05306835761443007,1.59773126138888,1.120066152246812,0.2007546721486498,0.228129416345773,1.724216569896812,0.7790177166252158,-0.152022800008563,-0.0403532624160227,1.774013425469763,0.3699706339802007,-0.4337398532486055,-0.3672076788140675,0.9558920208684198,816.7399267399268,796.996336996337,790.5494505494506,853.8095238095239,942.4542124542124,-0.414673,0.095459,0.924500,1.727142,-3.461761,1.525269,1,1,1,1,1,65.000000
2024-12-01 16:05:59.277,1.616077031494565,0.5416148690650714,0.9401457894210344,1.800887857169662,1.323359419457365,0.1533993375270722,0.2200928092975026,1.59773126138888,1.002932906247658,0.1991671495445295,0.1812725066427733,1.724216569896812,0.7942023016158244,-0.1253630533542721,-0.02305032801192041,1.774013425469763,0.4252510432031657,-0.4349085757329054,-0.3221812799647226,0.9558920208684198,794.981684981685,801.4285714285714,795.3846153846154,774.4322344322345,724.4688644688645,-0.425781,0.083923,0.892639,0.515900,2.063599,1.480408,1,1,1,1,1,65.000000
2024-12-01 16:05:59.779,1.662884574556672,0.6292430005134568,0.9641529472020411,1.800887857169662,1.381745678203883,0.2357785671890993,0.18687504376768,1.59773126138888,0.9569155103576968,0.2427876496025271,0.119300944490837,1.724216569896812,0.786324473896754,-0.0382698282031436,-0.06734451409750244,1.774013425469763,0.4041044361954179,-0.4002481760404973,-0.3111247288006687,0.9558920208684198,796.996336996337,795.7875457875458,799.4139194139194,825.6043956043957,635.4212454212454,-0.443359,0.083252,0.907593,1.158905,-4.418793,-1.151428,1,1,1,1,1,65.000000
2024-12-01 16:06:00.284,1.530465313861771,-0.03628164500432782,0.8700689260074561,1.800887857169662,1.282677515928635,-0.2872587377913174,0.1173741894555681,1.59773126138888,0.9267562387969536,0.0008032770188607586,0.1011860317881779,1.724216569896812,0.731418847432781,-0.05138948973038193,-0.1735616740853235,1.774013425469763,0.3379896855359972,-0.5653947841994584,-0.3677498579997571,0.9558920208684198,829.2307692307693,803.040293040293,792.967032967033,816.7399267399268,710.7692307692308,-0.447693,0.066406,0.908020,2.826233,-3.618774,-5.054321,1,1,1,1,1,65.000000
2024-12-01 16:06:00.780,1.509074445430526,-0.158405694612126,-0.1990221235746369,1.800887857169662,1.278678962759525,-0.3409016068618369,-0.3470361570380394,1.59773126138888,1.034626581725945,0.04494540496161521,-0.08780136708137951,1.724216569896812,0.7767965101097121,-0.02334746933271993,0.09286125974322469,1.774013425469763,0.3967863029042517,-0.4252947084533369,-0.1531828207389446,0.9558920208684198,721.6483516483516,789.3406593406594,800.2197802197802,911.8315018315019,1094.761904761905,-0.536316,0.137451,0.836731,2.422485,-3.992615,2.960815,1,1,1,1,1,65.000000
2024-12-01 16:06:01.276,1.499216944418185,0.224894822661993,-0.3692490495009527,1.800887857169662,1.337159331493215,0.1450664563681584,-0.2839417463161231,1.59773126138888,1.034897231012064,0.4003819649585406,0.1607476540580057,1.724216569896812,0.7911355301734935,0.2639469386254355,0.7241593595943371,1.774013425469763,0.4227104821795069,-0.03966123356429838,0.2870580403908534,0.9558920208684198,916.6666666666667,861.0622710622711,844.9450549450549,639.4505494505495,1528.717948717949,-0.440247,0.072083,0.920593,-2.429962,2.729034,11.088104,1,1,1,1,1,65.000000
2024-12-01 16:06:01.299,,,,,,,,,,,,,,,,,,,,,,,,,,,,,,,,,,,,,,/muse/elements/blink
2024-12-01 16:06:01.722,,,,,,,,,,,,,,,,,,,,,,,,,,,,,,,,,,,,,,/muse/elements/blink
2024-12-01 16:06:01.776,1.373400364887035,0.27995392911229,-0.2379930434298544,1.800887857169662,1.282037249455208,0.2530796820211442,-0.1477210852186435,1.59773126138888,0.8300591598719753,0.4003819649585406,0.2010507739352066,1.724216569896812,0.8595399346276573,0.3583266248119619,0.9434238008941286,1.774013425469763,0.5271385353907448,0.09569091391241129,0.4941162631639025,0.9558920208684198,882.4175824175825,794.5787545787546,795.7875457875458,874.7619047619048,245.3846153846154,-0.402527,0.117493,1.066284,0.082245,4.134674,-0.874786,1,1,1,1,1,65.000000
2024-12-01 16:06:01.913,,,,,,,,,,,,,,,,,,,,,,,,,,,,,,,,,,,,,,/muse/elements/blink
2024-12-01 16:06:02.280,1.373400364887035,0.5556776035672053,-0.2214375723035243,1.800887857169662,1.282037249455208,0.5183609587476429,-0.06839129536162775,1.59773126138888,0.8300591598719753,0.37331393637669,0.2010507739352066,1.724216569896812,0.8595399346276573,0.5660581101198168,1.154168630516209,1.774013425469763,0.5271385353907448,0.3006029946565643,0.6783714150540027,0.9558920208684198,786.1172161172161,802.6373626373627,786.5201465201466,866.3003663003664,1041.575091575092,-0.453979,0.136230,0.882019,1.450500,0.762634,2.467346,1,1,1,1,1,65.000000
2024-12-01 16:06:02.777,1.373400364887035,0.6312391994359554,0.3311767384601225,1.800887857169662,1.282037249455208,0.5967930545411959,0.1187447440026033,1.59773126138888,0.8300591598719753,0.3581726031377422,0.1601471599310806,1.724216569896812,0.8595399346276573,0.6297339295348637,0.7417767037500533,1.774013425469763,0.5271385353907448,0.3702325472202004,0.2917738164968076,0.9558920208684198,731.3186813186813,790.5494505494506,805.4578754578755,680.1465201465202,660,-0.410706,0.047974,0.771973,5.630035,-1.158905,2.056122,1,1,1,1,1,65.000000
2024-12-01 16:06:03.111,,,,,,,,,,,,,,,,,,,,,,,,,,,,,,,,,,,,,,/muse/elements/blink
2024-12-01 16:06:03.276,1.373400364887035,0.3640205575133946,0.6177999904327238,1.800887857169662,1.282037249455208,-0.1167514802508851,0.3133317847936685,1.59773126138888,0.8300591598719753,0.3221745848248876,0.1144395211941835,1.724216569896812,0.8595399346276573,0.2091789293537993,0.1937534449374357,1.774013425469763,0.5271385353907448,-0.4427169147856269,-0.3555890731888243,0.9558920208684198,759.5238095238095,839.3040293040293,836.8864468864469,586.2637362637363,609.2307692307693,-0.345581,0.106323,0.740356,3.985138,0.613098,-7.065582,1,1,1,1,1,65.000000
2024-12-01 16:06:03.777,1.373400364887035,0.4912071401009672,0.9698513660197378,1.800887857169662,1.282037249455208,0.2081800844209062,0.659621321199054,1.59773126138888,0.8300591598719753,0.5764384222879423,0.3811446724724916,1.724216569896812,0.8595399346276573,0.2557600991774334,0.1703342629613097,1.774013425469763,0.5271385353907448,-0.3733496965961446,-0.2174193284124115,0.9558920208684198,785.3113553113553,796.1904761904763,784.1025641025641,689.4139194139194,767.985347985348,-0.413269,0.068787,1.091003,1.256104,-8.688049,7.215118,1,2,1,1,2,65.000000
2024-12-01 16:06:04.277,1.373400364887035,0.5496830684455097,1.022391529507771,1.800887857169662,1.282037249455208,0.2978489223316617,0.714645541630773,1.59773126138888,0.8300591598719753,0.5764384222879423,0.4217611586341024,1.724216569896812,0.8595399346276573,0.2843086038690587,0.2193095665139928,1.774013425469763,0.5271385353907448,-0.3463172740505394,-0.2000060364991529,0.9558920208684198,885.6410256410256,798.2051282051282,788.9377289377289,661.2087912087912,170.8424908424909,-0.429504,0.143005,0.971863,-1.196289,-4.418793,-3.858032,1,2,1,1,2,65.000000
2024-12-01 16:06:04.332,,,,,,,,,,,,,,,,,,,,,,,,,,,,,,,,,,,,,,/muse/elements/blink
2024-12-01 16:06:04.777,1.373400364887035,0.3985031616587195,0.9251510833863438,1.800887857169662,1.282037249455208,0.3000582696391613,0.6209936119247522,1.59773126138888,0.8300591598719753,0.5990471167979156,0.4308995593318811,1.724216569896812,0.8595399346276573,0.2078509155525035,0.1568908746824448,1.774013425469763,0.5271385353907448,-0.2118236402316338,-0.2542118211333489,0.9558920208684198,616.4835164835165,819.96336996337,803.040293040293,1093.150183150183,777.2527472527473,-0.601624,0.198608,1.400635,11.140442,-5.540314,3.499146,1,2,1,1,2,60.000000
2024-12-01 16:06:04.860,,,,,,,,,,,,,,,,,,,,,,,,,,,,,,,,,,,,,,/muse/elements/blink
2024-12-01 16:06:05.281,1.373400364887035,0.1316886312458916,0.04512782278565724,1.800887857169662,1.282037249455208,-0.2495571813392912,-0.2345962277079402,1.59773126138888,0.8300591598719753,0.5025045745660419,0.4063364631788314,1.724216569896812,0.8595399346276573,0.1677974221717819,0.1670795213688522,1.774013425469763,0.5271385353907448,-0.2384050041822562,-0.4189924750929616,0.9558920208684198,775.2380952380953,816.3369963369963,792.1611721611722,813.919413919414,925.5311355311355,-0.498230,0.090271,0.934509,0.112152,-1.211243,-8.747864,1,2,1,1,2,60.000000
2024-12-01 16:06:05.370,,,,,,,,,,,,,,,,,,,,,,,,,,,,,,,,,,,,,,/muse/elements/blink
2024-12-01 16:06:05.370,,,,,,,,,,,,,,,,,,,,,,,,,,,,,,,,,,,,,,/muse/elements/jaw_clench
2024-12-01 16:06:05.777,1.373400364887035,0.5552884844620432,0.02429876123380754,1.800887857169662,1.282037249455208,0.09865854027281594,-0.2654538742694588,1.59773126138888,0.8300591598719753,0.559058712758418,0.3737222007501471,1.724216569896812,0.8595399346276573,0.3985004642039929,0.1642130794198767,1.774013425469763,0.5271385353907448,-0.009733977287223167,-0.4063039663513821,0.9558920208684198,859.4505494505495,796.996336996337,801.8315018315019,1061.721611721612,538.7179487179487,-0.329651,0.167786,0.826050,-0.717773,1.248627,3.723450,1,2,1,1,4,60.000000
2024-12-01 16:06:05.995,,,,,,,,,,,,,,,,,,,,,,,,,,,,,,,,,,,,,,/muse/elements/blink
2024-12-01 16:06:06.277,1.373400364887035,0.7114594187344365,0.3836750636717126,1.800887857169662,1.282037249455208,0.2021792619365096,0.0244831950808168,1.59773126138888,0.8300591598719753,0.5545206644795991,0.5370041327778736,1.724216569896812,0.8595399346276573,0.505393800858926,0.1406543308646507,1.774013425469763,0.5271385353907448,0.0609698846452084,-0.1296983560871839,0.9558920208684198,753.0769230769231,797.3992673992674,793.3699633699634,725.2747252747253,452.4908424908425,-0.349426,0.056763,0.770325,4.889832,-5.241241,2.886047,1,2,1,1,4,60.000000
2024-12-01 16:06:06.671,,,,,,,,,,,,,,,,,,,,,,,,,,,,,,,,,,,,,,/muse/elements/blink
2024-12-01 16:06:06.778,1.373400364887035,0.7853996861666073,0.5073227832481964,1.800887857169662,1.282037249455208,0.7990302325942916,0.708937063699377,1.59773126138888,0.8300591598719753,0.9388342168075946,0.9711408219286204,1.724216569896812,0.8595399346276573,0.5385652487378977,0.08757710401069314,1.774013425469763,0.5271385353907448,0.1184439524312206,-0.0259907212015874,0.9558920208684198,741.3919413919414,803.4432234432235,809.4871794871796,747.4358974358975,276.8131868131868,-0.351196,0.105896,0.697144,-9.996490,-0.568237,-4.755249,1,2,1,1,4,60.000000
2024-12-01 16:06:06.955,,,,,,,,,,,,,,,,,,,,,,,,,,,,,,,,,,,,,,/muse/elements/blink
2024-12-01 16:06:07.277,1.373400364887035,0.7721920515525093,0.7237548324863912,1.800887857169662,1.282037249455208,0.7760198758440717,0.6717118700063075,1.59773126138888,0.8300591598719753,1.108208615540844,1.076665427004012,1.724216569896812,0.8595399346276573,0.4347404224576347,0.2403409878550564,1.774013425469763,0.5271385353907448,-0.1703041231187881,-0.1602277869850611,0.9558920208684198,783.6996336996338,792.967032967033,794.5787545787546,610.0366300366301,686.1904761904763,-0.342712,0.034668,0.837158,1.517792,-3.730927,4.530945,1,2,1,1,4,60.000000
2024-12-01 16:06:07.303,,,,,,,,,,,,,,,,,,,,,,,,,,,,,,,,,,,,,,/muse/elements/blink
2024-12-01 16:06:07.656,,,,,,,,,,,,,,,,,,,,,,,,,,,,,,,,,,,,,,/muse/elements/blink
2024-12-01 16:06:07.783,1.373400364887035,0.8223246600791938,0.7840229666242159,1.800887857169662,1.282037249455208,0.6902164933363664,0.6095378326289119,1.59773126138888,0.8300591598719753,1.108208615540844,1.076665427004012,1.724216569896812,0.8595399346276573,0.4891586940389484,0.2380711836574438,1.774013425469763,0.5271385353907448,-0.225323459452497,-0.2735894505161374,0.9558920208684198,762.7472527472528,810.6959706959707,813.5164835164835,937.2161172161173,745.8241758241759,-0.341614,0.153992,0.955261,5.757141,-8.979645,-5.899200,1,2,1,1,4,60.000000
2024-12-01 16:06:07.981,,,,,,,,,,,,,,,,,,,,,,,,,,,,,,,,,,,,,,/muse/elements/blink
2024-12-01 16:06:08.277,1.373400364887035,0.8705187875071866,0.8815886134022453,1.800887857169662,1.282037249455208,0.6455409081814426,0.5459345711021757,1.59773126138888,0.8300591598719753,1.105506748065387,1.038172509593693,1.724216569896812,0.8595399346276573,0.5480949267531032,0.3661522966633867,1.774013425469763,0.5271385353907448,-0.2085349843997982,-0.5765612403479856,0.9558920208684198,773.6263736263736,801.4285714285714,791.7582417582418,721.2454212454213,567.3260073260074,-0.382080,0.042358,1.083618,3.102875,0.508423,0.381317,1,2,1,1,4,60.000000
2024-12-01 16:06:08.407,,,,,,,,,,,,,,,,,,,,,,,,,,,,,,,,,,,,,,/muse/elements/blink
2024-12-01 16:06:08.782,1.373400364887035,0.9764309343871507,0.8931814923763401,1.800887857169662,1.282037249455208,0.8891087400698944,0.651060618942798,1.59773126138888,0.8300591598719753,0.9258086552576587,0.6994522945673215,1.724216569896812,0.8595399346276573,0.4925180188730998,0.2971034846934644,1.774013425469763,0.5271385353907448,-0.1935746017804331,-0.4434472793366184,0.9558920208684198,900.5494505494506,811.0989010989011,807.4725274725275,641.8681318681319,1626.630036630037,-0.437439,0.216064,1.101013,11.671295,22.677155,-1.054230,1,2,1,1,2,60.000000
2024-12-01 16:06:09.253,,,,,,,,,,,,,,,,,,,,,,,,,,,,,,,,,,,,,,/muse/elements/blink
2024-12-01 16:06:09.277,1.373400364887035,0.9150364392449725,0.8414410953885342,1.800887857169662,1.282037249455208,0.86328667146503,0.6234072391664084,1.59773126138888,0.8300591598719753,1.080241485498241,0.8113840132047145,1.724216569896812,0.8595399346276573,0.4891531703984177,0.2940640407652563,1.774013425469763,0.5271385353907448,-0.1497917689592655,-0.4230401795030939,0.9558920208684198,684.1758241758242,815.5311355311355,811.5018315018315,1017.399267399267,994.4322344322345,-0.453613,0.127075,0.996399,-0.500946,4.029999,2.115936,1,2,1,1,2,60.000000
2024-12-01 16:06:09.400,,,,,,,,,,,,,,,,,,,,,,,,,,,,,,,,,,,,,,/muse/elements/blink
2024-12-01 16:06:09.634,,,,,,,,,,,,,,,,,,,,,,,,,,,,,,,,,,,,,,/muse/elements/blink
2024-12-01 16:06:09.784,1.373400364887035,0.9108713662199686,0.7671305820298502,1.800887857169662,1.282037249455208,0.7473665621735786,0.5627490425941887,1.59773126138888,0.8300591598719753,1.080403542798531,0.8080263758406988,1.724216569896812,0.8595399346276573,0.476328687595462,0.2132009259507394,1.774013425469763,0.5271385353907448,-0.2621443072025201,-0.3691465418372528,0.9558920208684198,853.0036630036631,799.4139194139194,800.6227106227107,778.4615384615385,1126.996336996337,-0.396423,0.058228,0.920959,-0.014954,2.826233,-2.848663,1,2,1,1,2,60.000000
2024-12-01 16:06:09.823,,,,,,,,,,,,,,,,,,,,,,,,,,,,,,,,,,,,,,/muse/elements/blink
2024-12-01 16:06:10.277,1.373400364887035,0.6080352151838736,0.5440662556066875,1.800887857169662,1.282037249455208,0.06679821414950916,0.1765513816646661,1.59773126138888,0.8300591598719753,1.01098287773941,0.7468616457700529,1.724216569896812,0.8595399346276573,0.47087833626436,0.1915977338322397,1.774013425469763,0.5271385353907448,-0.2605987763205351,-0.4732492981031772,0.9558920208684198,817.1428571428571,804.6520146520147,803.8461538461539,869.92673992674,0.4029304029304029,-0.337219,0.156006,0.880859,0.493469,-7.491760,2.033691,1,2,1,1,2,60.000000
2024-12-01 16:06:10.612,,,,,,,,,,,,,,,,,,,,,,,,,,,,,,,,,,,,,,/muse/elements/blink
2024-12-01 16:06:10.787,1.373400364887035,0.69562903530406,0.4385728385341801,1.800887857169662,1.282037249455208,0.006411315356932461,0.06003625240786419,1.59773126138888,0.8300591598719753,0.9527881261583224,0.7006351170321103,1.724216569896812,0.8595399346276573,0.3833961435121205,0.1696790560419683,1.774013425469763,0.5271385353907448,-0.2940368008025824,-0.5291895103872799,0.9558920208684198,744.6153846153846,798.2051282051282,797.3992673992674,499.6336996336996,699.8901098901099,-0.391479,0.060181,0.845581,3.865509,2.108459,0.186920,1,2,1,1,2,60.000000
2024-12-01 16:06:11.037,,,,,,,,,,,,,,,,,,,,,,,,,,,,,,,,,,,,,,/muse/elements/blink
2024-12-01 16:06:11.284,1.373400364887035,0.5995632456809777,0.2049108049528616,1.800887857169662,1.282037249455208,0.1180352744457397,-0.01119068583937526,1.59773126138888,0.8300591598719753,0.3571336951694961,0.4223917338398385,1.724216569896812,0.8595399346276573,0.2538790010658724,0.06337013952741299,1.774013425469763,0.5271385353907448,-0.2902181601663814,-0.6584893460316745,0.9558920208684198,808.2783882783883,800.6227106227107,796.1904761904763,872.3443223443223,1193.076923076923,-0.326050,0.147278,1.068970,4.755249,-11.529236,-1.540222,1,2,1,1,2,60.000000
2024-12-01 16:06:11.319,,,,,,,,,,,,,,,,,,,,,,,,,,,,,,,,,,,,,,/muse/elements/blink
2024-12-01 16:06:11.640,,,,,,,,,,,,,,,,,,,,,,,,,,,,,,,,,,,,,,/muse/elements/blink
2024-12-01 16:06:11.777,1.373400364887035,0.5754023496750149,0.0845019347693273,1.800887857169662,1.282037249455208,0.1689115605258598,-0.1711114997607643,1.59773126138888,0.8300591598719753,0.5117240874521789,0.3538830514374618,1.724216569896812,0.8595399346276573,0.2402230744874184,0.06055740448877762,1.774013425469763,0.5271385353907448,-0.3677746224694373,-0.6297358509767117,0.9558920208684198,821.5750915750916,787.3260073260074,786.5201465201466,449.2673992673993,274.3956043956044,-0.350220,0.108887,1.004028,-0.291595,3.865509,2.444916,1,2,1,1,2,60.000000
2024-12-01 16:06:12.148,,,,,,,,,,,,,,,,,,,,,,,,,,,,,,,,,,,,,,/muse/elements/blink
2024-12-01 16:06:12.285,1.373400364887035,0.6450096857065055,0.05084967842569463,1.800887857169662,1.282037249455208,0.3486813630117311,0.03149916765289511,1.59773126138888,0.8300591598719753,0.6477603113338846,0.4924295724207093,1.724216569896812,0.8595399346276573,0.2381161669034234,-0.01732278915887243,1.774013425469763,0.5271385353907448,-0.4174015267596367,-0.5368236708323142,0.9558920208684198,887.6556776556777,804.2490842490843,792.5641025641025,994.4322344322345,960.1831501831502,-0.418152,0.126526,1.145630,1.495361,-0.912170,-3.349609,1,2,1,1,2,60.000000
2024-12-01 16:06:12.433,,,,,,,,,,,,,,,,,,,,,,,,,,,,,,,,,,,,,,/muse/elements/blink
2024-12-01 16:06:12.687,,,,,,,,,,,,,,,,,,,,,,,,,,,,,,,,,,,,,,/muse/elements/blink
2024-12-01 16:06:12.777,1.373400364887035,0.7452735454188665,0.3963631617666972,1.800887857169662,1.282037249455208,0.4929702283895435,0.1012350470678926,1.59773126138888,0.8300591598719753,0.817126071232855,0.7206402222482868,1.724216569896812,0.8595399346276573,0.3621238134272863,0.06658969302352995,1.774013425469763,0.5271385353907448,-0.356303405364531,-0.4657007376822105,0.9558920208684198,779.2673992673992,801.025641025641,789.7435897435897,945.2747252747253,513.7362637362637,-0.417297,0.117798,1.095337,10.534821,-10.071259,2.661743,1,2,1,1,2,60.000000
2024-12-01 16:06:13.064,,,,,,,,,,,,,,,,,,,,,,,,,,,,,,,,,,,,,,/muse/elements/blink
2024-12-01 16:06:13.281,1.373400364887035,0.8491078052233073,0.5624732503864492,1.800887857169662,1.282037249455208,0.6618050099791949,0.3321652436884303,1.59773126138888,0.8300591598719753,0.8414685411881208,0.80698683517004,1.724216569896812,0.8595399346276573,0.4788272478177319,0.1954351760948056,1.774013425469763,0.5271385353907448,-0.2918961646680093,-0.3755970109510187,0.9558920208684198,938.021978021978,815.1282051282052,801.8315018315019,759.92673992674,1342.564102564103,-0.348511,-0.039551,0.831909,2.908478,-1.966400,5.188904,1,2,1,1,2,60.000000
2024-12-01 16:06:13.375,,,,,,,,,,,,,,,,,,,,,,,,,,,,,,,,,,,,,,/muse/elements/blink
2024-12-01 16:06:13.778,1.373400364887035,0.8374677306590241,0.6723295636368813,1.800887857169662,1.282037249455208,0.7253599079224506,0.4010962041494106,1.59773126138888,0.8300591598719753,0.9426641709565871,0.8048442100630253,1.724216569896812,0.8595399346276573,0.4764578592098537,0.2686274405070654,1.774013425469763,0.5271385353907448,-0.3199410454576609,-0.3483938397967418,0.9558920208684198,720.4395604395604,799.8168498168499,797.8021978021978,712.3809523809524,915.0549450549451,-0.288147,0.091370,0.788513,-2.594452,6.018829,-2.130890,1,2,1,1,4,60.000000
2024-12-01 16:06:13.981,,,,,,,,,,,,,,,,,,,,,,,,,,,,,,,,,,,,,,/muse/elements/blink
2024-12-01 16:06:14.277,1.373400364887035,1.025924390642304,0.5529440459611561,1.800887857169662,1.282037249455208,0.8500789901805605,0.4533167399473368,1.59773126138888,0.8300591598719753,0.9774643629116089,0.6942887450672404,1.724216569896812,0.8595399346276573,0.3778952469358103,0.2384720530257832,1.774013425469763,0.5271385353907448,-0.3568948965674538,-0.2999614776784309,0.9558920208684198,777.2527472527473,802.2344322344322,797.8021978021978,887.6556776556777,588.6813186813187,-0.314514,0.058472,0.850464,7.387085,-6.093597,-1.607513,1,2,1,1,4,60.000000
2024-12-01 16:06:14.354,,,,,,,,,,,,,,,,,,,,,,,,,,,,,,,,,,,,,,/muse/elements/blink
2024-12-01 16:06:14.788,1.373400364887035,1.066283336006164,0.4697153736149096,1.800887857169662,1.282037249455208,0.8477248697759386,0.3738247542696715,1.59773126138888,0.8300591598719753,0.939906919132157,0.4714643440844079,1.724216569896812,0.8595399346276573,0.4243759953925684,0.2069244330602088,1.774013425469763,0.5271385353907448,-0.3247657267274058,-0.3068406775827557,0.9558920208684198,699.8901098901099,786.5201465201466,785.7142857142858,702.3076923076924,1016.190476190476,-0.278992,0.136108,0.939392,1.682281,-3.910370,0.964508,1,2,1,1,4,60.000000
2024-12-01 16:06:14.981,,,,,,,,,,,,,,,,,,,,,,,,,,,,,,,,,,,,,,/muse/elements/blink
2024-12-01 16:06:15.279,1.373400364887035,1.0464886440925,0.5077578382054716,1.800887857169662,1.282037249455208,0.8083355313552607,0.3789531445457999,1.59773126138888,0.8300591598719753,0.9887378589964848,0.4516718224941005,1.724216569896812,0.8595399346276573,0.7002232802252862,0.6271336462349728,1.774013425469763,0.5271385353907448,-0.02529305342639758,-0.05809294714143176,0.9558920208684198,1013.369963369963,815.5311355311355,800.6227106227107,612.8571428571429,1605.274725274725,-0.448730,0.030029,1.116516,4.979553,10.340424,3.663635,1,2,1,1,4,60.000000
2024-12-01 16:06:15.406,,,,,,,,,,,,,,,,,,,,,,,,,,,,,,,,,,,,,,/muse/elements/blink
2024-12-01 16:06:15.716,,,,,,,,,,,,,,,,,,,,,,,,,,,,,,,,,,,,,,/muse/elements/blink
2024-12-01 16:06:15.776,1.373400364887035,0.716583989610115,0.4634000605529843,1.800887857169662,1.282037249455208,0.6106491550178698,0.4214571557104388,1.59773126138888,0.8300591598719753,1.096959008122659,0.6677331385254742,1.724216569896812,0.8595399346276573,0.7184341584037566,0.5533631769181919,1.774013425469763,0.5271385353907448,0.08624950845486988,-0.08177499542341206,0.9558920208684198,850.989010989011,792.967032967033,795.7875457875458,781.2820512820513,0,-0.355469,0.215576,0.980530,2.729034,4.874878,-6.504822,1,2,1,1,4,60.000000
2024-12-01 16:06:15.927,,,,,,,,,,,,,,,,,,,,,,,,,,,,,,,,,,,,,,/muse/elements/blink
2024-12-01 16:06:16.277,1.373400364887035,0.7559220065958863,0.4256550631102942,1.800887857169662,1.282037249455208,0.7182829202287265,0.4114264432155503,1.59773126138888,0.8300591598719753,1.096999395373947,0.7343298771713629,1.724216569896812,0.8595399346276573,0.6556852024923114,0.5049967752761626,1.774013425469763,0.5271385353907448,0.07342139892285655,-0.1729284431408718,0.9558920208684198,846.959706959707,792.5641025641025,794.5787545787546,709.5604395604396,1630.25641025641,-0.551758,0.218323,1.366211,7.686157,-5.816956,10.138550,1,2,1,1,2,60.000000
2024-12-01 16:06:16.330,,,,,,,,,,,,,,,,,,,,,,,,,,,,,,,,,,,,,,/muse/elements/blink
2024-12-01 16:06:16.522,,,,,,,,,,,,,,,,,,,,,,,,,,,,,,,,,,,,,,/muse/elements/blink
2024-12-01 16:06:16.777,1.373400364887035,0.8380082577199994,0.269925008263899,1.800887857169662,1.282037249455208,0.7420835079971173,0.3846378937557838,1.59773126138888,0.8300591598719753,1.09609642777792,0.7434773286709827,1.724216569896812,0.8595399346276573,0.4683542646934102,0.3067141432973778,1.774013425469763,0.5271385353907448,-0.004511168286707413,-0.3195120909648678,0.9558920208684198,967.4358974358975,801.8315018315019,786.5201465201466,1043.992673992674,458.9377289377289,-0.409668,0.039490,0.785156,8.254395,-0.598145,-6.018829,1,2,1,1,2,60.000000
2024-12-01 16:06:16.804,,,,,,,,,,,,,,,,,,,,,,,,,,,,,,,,,,,,,,/muse/elements/blink
2024-12-01 16:06:17.287,1.373400364887035,1.038355740770846,0.7237235502421111,1.800887857169662,1.282037249455208,0.8374513577806492,0.5205072393049972,1.59773126138888,0.8300591598719753,1.069972682899826,0.7208946216781915,1.724216569896812,0.8595399346276573,0.4325966565020942,0.2289094546776224,1.774013425469763,0.5271385353907448,-0.1777559928971451,-0.3501400667004083,0.9558920208684198,770.4029304029305,798.6080586080586,803.040293040293,674.5054945054945,0,-0.342590,0.114746,0.712952,2.145844,1.607513,1.076660,1,2,1,1,4,60.000000
2024-12-01 16:06:17.414,,,,,,,,,,,,,,,,,,,,,,,,,,,,,,,,,,,,,,/muse/elements/blink
2024-12-01 16:06:17.777,1.373400364887035,1.171057887904761,0.9117705831795269,1.800887857169662,1.282037249455208,0.770146830145962,0.5544141016068725,1.59773126138888,0.8300591598719753,0.9576087501678482,0.5948492384654819,1.724216569896812,0.8595399346276573,0.4362898071940912,0.1877673333247924,1.774013425469763,0.5271385353907448,-0.2461334381417185,-0.314701674005336,0.9558920208684198,798.2051282051282,782.4908424908425,794.1758241758242,955.7509157509157,1038.754578754579,-0.358887,0.036743,0.800964,3.386993,-10.931091,0.785065,1,2,1,1,4,60.000000
2024-12-01 16:06:18.020,,,,,,,,,,,,,,,,,,,,,,,,,,,,,,,,,,,,,,/muse/elements/blink
2024-12-01 16:06:18.277,1.373400364887035,1.220092645980435,0.9295937997332976,1.800887857169662,1.282037249455208,0.8472696393700032,0.5266383951899343,1.59773126138888,0.8300591598719753,0.9322987875290255,0.5461323646178877,1.724216569896812,0.8595399346276573,0.4934532348084162,0.2964420633710782,1.774013425469763,0.5271385353907448,-0.3698269756465404,-0.3222107752815123,0.9558920208684198,832.4542124542124,790.952380952381,793.7728937728938,653.1501831501831,1626.630036630037,-0.325134,0.167053,0.892151,1.981354,-15.701294,-4.560852,1,2,1,1,4,60.000000
2024-12-01 16:06:18.631,,,,,,,,,,,,,,,,,,,,,,,,,,,,,,,,,,,,,,/muse/elements/blink
2024-12-01 16:06:18.779,1.373400364887035,1.128154934126436,0.667737981436328,1.800887857169662,1.282037249455208,0.8411324786212329,0.3065753448280142,1.59773126138888,0.8300591598719753,1.05433815009273,0.6838437326365693,1.724216569896812,0.8595399346276573,0.5399171586799855,0.2968933685847681,1.774013425469763,0.5271385353907448,-0.3836281792256249,-0.4038636960242816,0.9558920208684198,987.985347985348,810.2930402930403,797.8021978021978,734.5421245421246,748.2417582417582,-0.421082,0.068970,0.999146,5.906677,9.024506,4.239349,1,2,1,1,4,60.000000
2024-12-01 16:06:19.136,,,,,,,,,,,,,,,,,,,,,,,,,,,,,,,,,,,,,,/muse/elements/blink
2024-12-01 16:06:19.285,1.373400364887035,0.9965902075439308,0.1827300740678633,1.800887857169662,1.282037249455208,0.8538511967592722,0.1345895282777326,1.59773126138888,0.8300591598719753,1.029534080174524,0.6819220576379678,1.724216569896812,0.8595399346276573,0.5120493948534731,0.2873191630403691,1.774013425469763,0.5271385353907448,-0.4243002525572545,-0.4587344881232305,0.9558920208684198,610.0366300366301,806.6666666666667,803.040293040293,977.1062271062272,0,-0.611816,0.070557,1.344543,-4.403839,-14.190979,-2.071075,1,2,1,1,4,60.000000
2024-12-01 16:06:19.777,1.373400364887035,0.9303825947305437,0.4708897356794592,1.800887857169662,1.282037249455208,0.9491465365082065,0.2558601504191507,1.59773126138888,0.8300591598719753,1.037210051209216,0.7085642773881005,1.724216569896812,0.8595399346276573,0.4847606895021341,0.1951555340735942,1.774013425469763,0.5271385353907448,-0.3543752278131369,-0.4663149428466916,0.9558920208684198,924.3223443223443,809.4871794871796,800.2197802197802,991.6117216117217,828.021978021978,-0.480286,0.093262,0.913696,-1.271057,1.757050,1.906586,1,2,1,1,4,60.000000
2024-12-01 16:06:19.861,,,,,,,,,,,,,,,,,,,,,,,,,,,,,,,,,,,,,,/muse/elements/blink
2024-12-01 16:06:20.092,,,,,,,,,,,,,,,,,,,,,,,,,,,,,,,,,,,,,,/muse/elements/blink
2024-12-01 16:06:20.277,1.373400364887035,0.8632126116236624,0.6023093858979093,1.800887857169662,1.282037249455208,0.9083108951176997,0.420311811513402,1.59773126138888,0.8300591598719753,0.7272890637589464,0.4046176891149263,1.724216569896812,0.8595399346276573,0.4036051811406806,0.1561202479090646,1.774013425469763,0.5271385353907448,-0.2968126271491834,-0.505701529574752,0.9558920208684198,709.1575091575091,803.4432234432235,803.040293040293,670.4761904761905,0,-0.368286,-0.010437,0.749146,6.781464,-4.942169,-4.089813,1,2,1,1,4,60.000000
2024-12-01 16:06:20.467,,,,,,,,,,,,,,,,,,,,,,,,,,,,,,,,,,,,,,/muse/elements/blink
2024-12-01 16:06:20.684,,,,,,,,,,,,,,,,,,,,,,,,,,,,,,,,,,,,,,/muse/elements/blink
2024-12-01 16:06:20.782,1.373400364887035,0.8007787477854043,0.7216939378109206,1.800887857169662,1.282037249455208,0.9099770965730989,0.4275174253475484,1.59773126138888,0.8300591598719753,0.7733833813596263,0.5521838014308307,1.724216569896812,0.8595399346276573,0.4235729984996843,0.2338705755367858,1.774013425469763,0.5271385353907448,-0.2755865666734987,-0.4915257314794398,0.9558920208684198,688.6080586080586,797.3992673992674,803.040293040293,740.5860805860806,0,-0.299988,0.162109,0.750671,1.697235,-2.923431,-7.170258,1,2,1,1,4,60.000000
2024-12-01 16:06:20.875,,,,,,,,,,,,,,,,,,,,,,,,,,,,,,,,,,,,,,/muse/elements/blink
2024-12-01 16:06:21.085,,,,,,,,,,,,,,,,,,,,,,,,,,,,,,,,,,,,,,/muse/elements/blink
2024-12-01 16:06:21.284,1.373400364887035,0.7925293564847,0.6665952966611831,1.800887857169662,1.282037249455208,0.8518078226190131,0.3844898307606284,1.59773126138888,0.8300591598719753,0.9285341766751636,0.675482532315374,1.724216569896812,0.8595399346276573,0.5286343449799015,0.328179968745905,1.774013425469763,0.5271385353907448,-0.2248471332903076,-0.4811758433584992,0.9558920208684198,780.0732600732601,791.7582417582418,790.1465201465202,957.3626373626374,1205.567765567765,-0.280945,0.095154,0.914062,1.211243,-12.695618,11.132965,1,2,1,1,4,60.000000
2024-12-01 16:06:21.575,,,,,,,,,,,,,,,,,,,,,,,,,,,,,,,,,,,,,,/muse/elements/blink
2024-12-01 16:06:21.777,1.373400364887035,0.9074359124125553,0.7238465242110681,1.800887857169662,1.282037249455208,0.7085076203593509,0.1280436383094916,1.59773126138888,0.8300591598719753,0.9274828088452141,0.6466877963687114,1.724216569896812,0.8595399346276573,0.4500808919224009,0.299206063322943,1.774013425469763,0.5271385353907448,-0.225323205684773,-0.5076044164643775,0.9558920208684198,982.3443223443223,790.1465201465202,785.7142857142858,869.1208791208792,1626.630036630037,-0.319092,0.188599,0.943665,2.489777,-15.768585,-14.235840,1,2,1,1,4,60.000000
2024-12-01 16:06:22.112,,,,,,,,,,,,,,,,,,,,,,,,,,,,,,,,,,,,,,/muse/elements/blink
2024-12-01 16:06:22.285,1.373400364887035,0.9771005499988561,1.042017736158115,1.800887857169662,1.282037249455208,0.7342228418350282,0.5383922134603374,1.59773126138888,0.8300591598719753,0.9274828088452141,0.6621518638785819,1.724216569896812,0.8595399346276573,0.4874171040709895,0.3530529965888514,1.774013425469763,0.5271385353907448,-0.1765292059500731,-0.4067154462598961,0.9558920208684198,884.0293040293041,799.0109890109891,791.7582417582418,837.6923076923077,674.5054945054945,-0.320374,0.015991,1.092529,3.379517,7.828217,6.878662,1,2,1,1,2,60.000000
2024-12-01 16:06:22.742,,,,,,,,,,,,,,,,,,,,,,,,,,,,,,,,,,,,,,/muse/elements/blink
2024-12-01 16:06:22.782,1.373400364887035,1.058755543986874,1.133612651369743,1.800887857169662,1.282037249455208,0.602877935544367,0.7418125047321453,1.59773126138888,0.8300591598719753,0.6005607769238768,0.6061283442885271,1.724216569896812,0.8595399346276573,0.1893191818479035,0.28348215863094,1.774013425469763,0.5271385353907448,-0.1769616627790998,-0.3889063407044455,0.9558920208684198,818.7545787545788,802.2344322344322,802.6373626373627,880.4029304029305,33.04029304029304,-0.318848,0.172424,1.098511,-0.097198,-2.639313,6.923523,1,2,1,1,4,60.000000
2024-12-01 16:06:23.145,,,,,,,,,,,,,,,,,,,,,,,,,,,,,,,,,,,,,,/muse/elements/blink
2024-12-01 16:06:23.277,1.373400364887035,1.031412311401322,1.098108952855591,1.800887857169662,1.282037249455208,0.6288699156606832,0.7753445410632657,1.59773126138888,0.8300591598719753,0.5834485708212284,0.7715546351388763,1.724216569896812,0.8595399346276573,0.1764473636229804,0.3742248463587771,1.774013425469763,0.5271385353907448,-0.1465566205383874,-0.3602620317346228,0.9558920208684198,933.5897435897436,810.6959706959707,801.025641025641,1075.421245421245,1626.630036630037,-0.384094,0.164185,0.936096,3.469238,0.224304,1.158905,1,2,1,1,4,60.000000
2024-12-01 16:06:23.544,,,,,,,,,,,,,,,,,,,,,,,,,,,,,,,,,,,,,,/muse/elements/blink
2024-12-01 16:06:23.755,,,,,,,,,,,,,,,,,,,,,,,,,,,,,,,,,,,,,,/muse/elements/blink
2024-12-01 16:06:23.777,1.373400364887035,1.308424539846522,1.031531224596749,1.800887857169662,1.282037249455208,1.129599191025217,0.8774417082498019,1.59773126138888,0.8300591598719753,1.10237378420449,0.7965907520974316,1.724216569896812,0.8595399346276573,0.535345857046946,0.3348055038238035,1.774013425469763,0.5271385353907448,-0.2668853414510501,-0.3760805305721858,0.9558920208684198,778.0586080586081,794.1758241758242,801.025641025641,1003.296703296703,0,-0.366760,0.027405,0.719299,10.295563,2.654266,-1.091614,1,2,1,1,4,60.000000
2024-12-01 16:06:23.966,,,,,,,,,,,,,,,,,,,,,,,,,,,,,,,,,,,,,,/muse/elements/blink
2024-12-01 16:06:24.276,1.373400364887035,1.308424539846522,1.184817674237616,1.800887857169662,1.282037249455208,1.129599191025217,1.069446675288984,1.59773126138888,0.8300591598719753,1.10237378420449,0.8318048026202661,1.724216569896812,0.8595399346276573,0.535345857046946,0.3257700912749984,1.774013425469763,0.5271385353907448,-0.2668853414510501,-0.357697102557351,0.9558920208684198,629.3772893772893,787.7289377289378,804.6520146520147,478.2783882783883,0,-0.341492,0.111633,0.697144,-0.231781,-1.697235,-0.575714,1,2,1,1,4,60.000000
2024-12-01 16:06:24.461,,,,,,,,,,,,,,,,,,,,,,,,,,,,,,,,,,,,,,/muse/elements/blink
2024-12-01 16:06:24.777,1.373400364887035,1.41388118778618,1.257627242157838,1.800887857169662,1.282037249455208,1.184049247689883,1.146645391525492,1.59773126138888,0.8300591598719753,1.064798633973656,0.8523128037539998,1.724216569896812,0.8595399346276573,0.5704708976876389,0.3494251625217697,1.774013425469763,0.5271385353907448,-0.1940587625471515,-0.3454286152313646,0.9558920208684198,759.1208791208792,775.6410256410256,785.3113553113553,700.2930402930403,1259.96336996337,-0.434387,0.027649,0.768250,0.620575,2.429962,-4.904785,1,2,1,1,4,60.000000
2024-12-01 16:06:24.992,,,,,,,,,,,,,,,,,,,,,,,,,,,,,,,,,,,,,,/muse/elements/blink
2024-12-01 16:06:25.277,1.373400364887035,1.41388118778618,1.293294695264244,1.800887857169662,1.282037249455208,1.184049247689883,1.056195772583524,1.59773126138888,0.8300591598719753,1.064798633973656,0.8616383686492577,1.724216569896812,0.8595399346276573,0.5704708976876389,0.4955719249289342,1.774013425469763,0.5271385353907448,-0.1940587625471515,-0.2275253632301022,0.9558920208684198,920.6959706959707,790.1465201465202,790.1465201465202,648.3150183150183,1602.051282051282,-0.495972,0.210815,1.080566,1.562653,-13.054504,1.405640,1,2,1,1,4,65.000000
2024-12-01 16:06:25.579,,,,,,,,,,,,,,,,,,,,,,,,,,,,,,,,,,,,,,/muse/elements/blink
2024-12-01 16:06:25.781,1.373400364887035,1.41388118778618,1.113663712103823,1.800887857169662,1.282037249455208,1.184049247689883,0.6601069631002903,1.59773126138888,0.8300591598719753,1.064798633973656,0.7784724571321304,1.724216569896812,0.8595399346276573,0.5704708976876389,0.6908979584319583,1.774013425469763,0.5271385353907448,-0.1940587625471515,-0.1269819089050945,0.9558920208684198,762.3443223443223,786.5201465201466,792.1611721611722,570.952380952381,1626.630036630037,-0.351074,-0.022339,0.901367,0.471039,-5.458069,16.426544,1,2,1,1,4,65.000000
2024-12-01 16:06:26.276,1.373400364887035,1.41388118778618,1.147981677504085,1.800887857169662,1.282037249455208,1.184049247689883,0.8942128255090296,1.59773126138888,0.8300591598719753,1.064798633973656,1.06278655690606,1.724216569896812,0.8595399346276573,0.5704708976876389,0.6766148248041326,1.774013425469763,0.5271385353907448,-0.1940587625471515,-0.09135564555377969,0.9558920208684198,1074.212454212454,829.2307692307693,800.2197802197802,1100.40293040293,1515.018315018315,-0.511230,0.183105,1.161377,1.600037,-4.433746,-4.957123,1,2,1,1,4,65.000000
2024-12-01 16:06:26.545,,,,,,,,,,,,,,,,,,,,,,,,,,,,,,,,,,,,,,/muse/elements/blink
2024-12-01 16:06:26.787,1.373400364887035,1.41388118778618,1.122741773660708,1.800887857169662,1.282037249455208,1.184049247689883,1.09434001885932,1.59773126138888,0.8300591598719753,1.064798633973656,1.152233353918766,1.724216569896812,0.8595399346276573,0.5704708976876389,0.7157817100759595,1.774013425469763,0.5271385353907448,-0.1940587625471515,-0.02688712483583356,0.9558920208684198,1010.952380952381,790.5494505494506,786.1172161172161,523.4065934065934,0,-0.532837,-0.017761,1.069641,4.314117,12.904968,-6.721649,1,2,1,1,4,65.000000
2024-12-01 16:06:27.077,,,,,,,,,,,,,,,,,,,,,,,,,,,,,,,,,,,,,,/muse/elements/blink
2024-12-01 16:06:27.277,1.373400364887035,1.318638410698561,1.036567700229498,1.800887857169662,1.282037249455208,1.102193310046217,1.204936474674412,1.59773126138888,0.8300591598719753,1.337252659219527,1.142118567534669,1.724216569896812,0.8595399346276573,0.6122124598167147,0.364908074630202,1.774013425469763,0.5271385353907448,-0.1802674335737815,-0.1355432260747608,0.9558920208684198,600.3663003663004,802.2344322344322,803.040293040293,946.8864468864469,1637.106227106227,-0.722778,0.179993,1.381470,6.347809,-5.301056,3.267365,1,2,1,1,4,65.000000
2024-12-01 16:06:27.334,,,,,,,,,,,,,,,,,,,,,,,,,,,,,,,,,,,,,,/muse/elements/blink
2024-12-01 16:06:27.503,,,,,,,,,,,,,,,,,,,,,,,,,,,,,,,,,,,,,,/muse/elements/blink
2024-12-01 16:06:27.777,1.373400364887035,1.285573737747374,0.8564091279872281,1.800887857169662,1.282037249455208,0.9762673331177981,1.028445228624103,1.59773126138888,0.8300591598719753,1.40146742523352,1.175926886299858,1.724216569896812,0.8595399346276573,0.6599626674806019,0.3940447542101991,1.774013425469763,0.5271385353907448,-0.1930934739864072,-0.1304296003575566,0.9558920208684198,1068.168498168498,822.3809523809524,811.0989010989011,786.9230769230769,1626.227106227106,-0.564697,0.111023,0.963928,-5.375824,-1.794434,14.295654,1,2,1,1,4,65.000000
2024-12-01 16:06:27.787,,,,,,,,,,,,,,,,,,,,,,,,,,,,,,,,,,,,,,/muse/elements/blink
2024-12-01 16:06:28.212,,,,,,,,,,,,,,,,,,,,,,,,,,,,,,,,,,,,,,/muse/elements/blink
2024-12-01 16:06:28.277,1.373400364887035,1.211751437359851,0.7538671241624183,1.800887857169662,1.282037249455208,0.8605936814560752,0.6371359025775009,1.59773126138888,0.8300591598719753,1.21204059784464,0.8983322406848999,1.724216569896812,0.8595399346276573,0.6919626319048017,0.4541562086816309,1.774013425469763,0.5271385353907448,-0.2381910673842441,-0.2473254067082377,0.9558920208684198,866.3003663003664,828.8278388278388,781.6849816849817,1208.791208791209,401.3186813186813,-0.421631,0.020386,0.775391,16.351776,-5.869293,-3.686066,1,2,1,1,4,65.000000
2024-12-01 16:06:28.446,,,,,,,,,,,,,,,,,,,,,,,,,,,,,,,,,,,,,,/muse/elements/blink
2024-12-01 16:06:28.640,,,,,,,,,,,,,,,,,,,,,,,,,,,,,,,,,,,,,,/muse/elements/blink
2024-12-01 16:06:28.777,1.373400364887035,1.225178202999485,0.6974519552181158,1.800887857169662,1.282037249455208,0.9721219644083992,0.594844874922559,1.59773126138888,0.8300591598719753,1.204483444470678,0.9420170604083424,1.724216569896812,0.8595399346276573,0.685465923091093,0.4190597109097593,1.774013425469763,0.5271385353907448,-0.1510190098674999,-0.3199993635971226,0.9558920208684198,632.6007326007326,777.6556776556777,785.7142857142858,523.0036630036631,0,-0.373047,0.129578,0.661377,-1.816864,2.011261,1.510315,1,2,1,1,4,65.000000
2024-12-01 16:06:29.288,1.373400364887035,1.266869924365685,1.1556684855148,1.800887857169662,1.282037249455208,1.109993337404239,0.8042198383377271,1.59773126138888,0.8300591598719753,1.15834822016228,0.9909021699838012,1.724216569896812,0.8595399346276573,0.6729745334152082,0.3551203796570497,1.774013425469763,0.5271385353907448,-0.1218341882369958,-0.3852384982774102,0.9558920208684198,682.5641025641025,800.2197802197802,807.4725274725275,639.047619047619,146.6666666666667,-0.381836,0.037109,0.779724,4.187012,-2.594452,3.274841,1,2,1,1,4,65.000000
2024-12-01 16:06:29.530,,,,,,,,,,,,,,,,,,,,,,,,,,,,,,,,,,,,,,/muse/elements/blink
2024-12-01 16:06:29.777,1.373400364887035,1.256056804583986,1.247533818239454,1.800887857169662,1.282037249455208,1.221357623277119,0.9722796679528231,1.59773126138888,0.8300591598719753,0.9031150538246633,0.9683842702833108,1.724216569896812,0.8595399346276573,0.5840907975418049,0.1988101982237249,1.774013425469763,0.5271385353907448,0.02824127034183119,-0.3255600420795573,0.9558920208684198,638.6446886446887,771.2087912087912,787.7289377289378,606.4102564102565,1390.915750915751,-0.332397,0.159790,0.768250,1.151428,-9.203949,-5.106659,1,2,1,1,4,65.000000
2024-12-01 16:06:29.955,,,,,,,,,,,,,,,,,,,,,,,,,,,,,,,,,,,,,,/muse/elements/blink
2024-12-01 16:06:30.277,1.373400364887035,1.17553132104444,1.320346912948606,1.800887857169662,1.282037249455208,1.258969150133765,1.024024943317076,1.59773126138888,0.8300591598719753,0.9933410395171619,0.7957265126594876,1.724216569896812,0.8595399346276573,0.625250641102534,0.2960434020095069,1.774013425469763,0.5271385353907448,0.07677116183117208,-0.3295640399055182,0.9558920208684198,655.9706959706959,798.2051282051282,802.2344322344322,595.5311355311355,1626.630036630037,-0.374695,-0.008057,1.047241,-0.127106,-3.072968,3.588867,1,2,1,1,4,65.000000
2024-12-01 16:06:30.356,,,,,,,,,,,,,,,,,,,,,,,,,,,,,,,,,,,,,,/muse/elements/blink
2024-12-01 16:06:30.546,,,,,,,,,,,,,,,,,,,,,,,,,,,,,,,,,,,,,,/muse/elements/blink
2024-12-01 16:06:30.777,1.373400364887035,1.097229571197434,1.163270252379251,1.800887857169662,1.282037249455208,1.311069127794902,0.9286692589733321,1.59773126138888,0.8300591598719753,1.067490613138211,0.6849081668255095,1.724216569896812,0.8595399346276573,0.5951111795938373,0.3380484533054516,1.774013425469763,0.5271385353907448,0.1142839340515411,-0.3656507616264751,0.9558920208684198,1224.505494505495,820.3663003663004,803.040293040293,925.934065934066,1118.131868131868,-0.390808,0.187195,0.885254,-2.392578,-4.523468,-10.235748,1,4,1,1,4,65.000000
2024-12-01 16:06:31.154,,,,,,,,,,,,,,,,,,,,,,,,,,,,,,,,,,,,,,/muse/elements/blink
2024-12-01 16:06:31.277,1.373400364887035,1.19745677657197,1.086209295827428,1.800887857169662,1.282037249455208,1.332304232520724,0.7280394501200258,1.59773126138888,0.8300591598719753,1.138602732843054,0.60663846502201,1.724216569896812,0.8595399346276573,0.5816340322176782,0.5023579412067096,1.774013425469763,0.5271385353907448,0.01725800993661463,-0.4873429007772268,0.9558920208684198,871.1355311355312,792.967032967033,793.3699633699634,858.6446886446887,17.32600732600732,-0.591309,0.087708,1.332275,1.607513,-2.616882,7.424469,1,4,1,1,2,65.000000
2024-12-01 16:06:31.456,,,,,,,,,,,,,,,,,,,,,,,,,,,,,,,,,,,,,,/muse/elements/blink
2024-12-01 16:06:31.691,,,,,,,,,,,,,,,,,,,,,,,,,,,,,,,,,,,,,,/muse/elements/blink
2024-12-01 16:06:31.777,1.373400364887035,1.264637438180246,0.8643843430304148,1.800887857169662,1.282037249455208,1.311147130692972,0.6278173416920766,1.59773126138888,0.8300591598719753,1.06032690660219,0.5945481205632541,1.724216569896812,0.8595399346276573,0.4910755267088485,0.2188108053047504,1.774013425469763,0.5271385353907448,-0.03535550609317721,-0.4238765530484016,0.9558920208684198,857.032967032967,811.9047619047619,806.2637362637363,927.5457875457876,0,-0.452209,0.042297,0.881531,5.263672,-2.228088,-4.082336,1,2,1,1,2,65.000000
2024-12-01 16:06:32.277,1.373400364887035,1.332205686871974,1.231737375727465,1.800887857169662,1.282037249455208,1.277751372925699,0.7147427759884053,1.59773126138888,0.8300591598719753,0.9616632275886124,0.9608653616677904,1.724216569896812,0.8595399346276573,0.4118742021237021,0.1748865917218336,1.774013425469763,0.5271385353907448,-0.1047933068514642,-0.2483879584568454,0.9558920208684198,696.2637362637363,798.6080586080586,782.893772893773,649.92673992674,0,-0.369751,0.152100,0.814026,-0.747681,-4.187012,5.861816,1,2,1,1,4,65.000000
2024-12-01 16:06:32.471,,,,,,,,,,,,,,,,,,,,,,,,,,,,,,,,,,,,,,/muse/elements/blink
2024-12-01 16:06:32.777,1.373400364887035,1.228312565176836,1.207412160975505,1.800887857169662,1.282037249455208,1.164341125592725,0.7199705997778594,1.59773126138888,0.8300591598719753,0.9264372292109494,1.016476112897555,1.724216569896812,0.8595399346276573,0.4091351583186634,0.169223372712884,1.774013425469763,0.5271385353907448,-0.150533318523403,-0.3233726781033124,0.9558920208684198,779.6703296703297,798.2051282051282,786.5201465201466,750.6593406593407,1056.483516483516,-0.361267,0.076050,0.853699,4.553375,-2.990723,-2.691650,1,2,1,1,4,65.000000
2024-12-01 16:06:32.793,,,,,,,,,,,,,,,,,,,,,,,,,,,,,,,,,,,,,,/muse/elements/blink
2024-12-01 16:06:33.074,,,,,,,,,,,,,,,,,,,,,,,,,,,,,,,,,,,,,,/muse/elements/blink
2024-12-01 16:06:33.279,1.373400364887035,1.155193297614953,1.147009725131054,1.800887857169662,1.282037249455208,0.9921408779884503,0.7496235905193125,1.59773126138888,0.8300591598719753,0.8539631305261,1.016476112897555,1.724216569896812,0.8595399346276573,0.5467221485490081,0.1937450997594787,1.774013425469763,0.5271385353907448,0.1401410488768085,-0.1367623140204043,0.9558920208684198,900.952380952381,811.0989010989011,790.1465201465202,771.6117216117216,1626.630036630037,-0.448853,0.210205,0.954163,3.379517,10.430145,1.443024,1,2,1,1,2,65.000000
2024-12-01 16:06:33.710,,,,,,,,,,,,,,,,,,,,,,,,,,,,,,,,,,,,,,/muse/elements/blink
2024-12-01 16:06:33.777,1.373400364887035,1.186130516149403,0.9335685358674143,1.800887857169662,1.282037249455208,1.006649096671134,0.7241018264851773,1.59773126138888,0.8300591598719753,0.8620490773406452,1.025648976581478,1.724216569896812,0.8595399346276573,0.5317168416789366,0.2260810074844488,1.774013425469763,0.5271385353907448,0.2506046605789597,0.01726584431821164,0.9558920208684198,681.3553113553114,798.6080586080586,783.6996336996338,845.3479853479854,201.0622710622711,-0.512451,0.165649,1.014343,3.932800,-6.684265,1.876678,1,2,1,1,4,65.000000
2024-12-01 16:06:34.015,,,,,,,,,,,,,,,,,,,,,,,,,,,,,,,,,,,,,,/muse/elements/blink
2024-12-01 16:06:34.277,1.373400364887035,1.229036198669194,0.768477289746703,1.800887857169662,1.282037249455208,0.9803206455484186,0.629177110911657,1.59773126138888,0.8300591598719753,0.7355006563168086,0.8866138973701365,1.724216569896812,0.8595399346276573,0.5528984371915664,0.2067909508660875,1.774013425469763,0.5271385353907448,0.3212389748224748,0.07945512115241976,0.9558920208684198,728.901098901099,790.1465201465202,799.4139194139194,573.7728937728938,0,-0.335144,0.031616,0.833069,10.751648,-8.568420,-11.312408,1,2,1,1,2,65.000000
2024-12-01 16:06:34.386,,,,,,,,,,,,,,,,,,,,,,,,,,,,,,,,,,,,,,/muse/elements/blink
2024-12-01 16:06:34.777,1.373400364887035,1.178235495246525,0.7667939236855439,1.800887857169662,1.282037249455208,0.8643194980991382,0.4785059016451353,1.59773126138888,0.8300591598719753,0.7355006563168086,0.8850406863902024,1.724216569896812,0.8595399346276573,0.326550729677741,0.1415110408367471,1.774013425469763,0.5271385353907448,0.2285657475496325,0.02339748274975927,0.9558920208684198,682.1611721611722,820.3663003663004,764.3589743589744,720.8424908424909,791.3553113553114,-0.256775,0.251282,0.904541,-2.631836,-10.848846,-4.508514,1,2,1,1,4,65.000000
2024-12-01 16:06:35.021,,,,,,,,,,,,,,,,,,,,,,,,,,,,,,,,,,,,,,/muse/elements/blink
2024-12-01 16:06:35.288,1.373400364887035,1.010323734838353,0.9640737274131351,1.800887857169662,1.282037249455208,0.8604508664696783,0.3484528062531784,1.59773126138888,0.8300591598719753,0.4371847384686701,0.7940813829943596,1.724216569896812,0.8595399346276573,0.1677446254355044,0.1453043632442847,1.774013425469763,0.5271385353907448,-0.2005776613387913,-0.1847103109135875,0.9558920208684198,943.6630036630037,805.4578754578755,813.919413919414,894.1025641025641,1627.032967032967,-0.252502,0.041992,0.922180,0.059814,0.792542,-6.093597,1,2,1,1,4,65.000000
2024-12-01 16:06:35.369,,,,,,,,,,,,,,,,,,,,,,,,,,,,,,,,,,,,,,/muse/elements/blink
2024-12-01 16:06:35.706,,,,,,,,,,,,,,,,,,,,,,,,,,,,,,,,,,,,,,/muse/elements/blink
2024-12-01 16:06:35.787,1.373400364887035,0.9964616937553499,1.09336350987124,1.800887857169662,1.282037249455208,0.8685959832263074,0.4502929682926994,1.59773126138888,0.8300591598719753,0.7130961106477124,0.5638090819498605,1.724216569896812,0.8595399346276573,0.2785970469732122,0.238161636650902,1.774013425469763,0.5271385353907448,-0.08249003248529431,-0.2323410662923584,0.9558920208684198,976.3003663003664,820.7692307692308,807.4725274725275,1029.89010989011,0,-0.196472,0.051758,1.041565,4.927216,-6.258087,-5.039368,1,2,1,1,2,60.000000
2024-12-01 16:06:36.277,1.373400364887035,1.041101197946504,1.268963569863081,1.800887857169662,1.282037249455208,0.8841911283776135,0.6430288605100799,1.59773126138888,0.8300591598719753,0.8668767782715517,0.5449806885380276,1.724216569896812,0.8595399346276573,0.4945932881159918,0.3312059863106799,1.774013425469763,0.5271385353907448,-0.001394919859719131,-0.1688078414010541,0.9558920208684198,945.6776556776557,825.2014652014652,772.8205128205128,1000.47619047619,1626.630036630037,-0.365051,0.158813,1.012817,3.551483,-3.872986,-5.196381,1,2,1,1,2,60.000000
2024-12-01 16:06:36.662,,,,,,,,,,,,,,,,,,,,,,,,,,,,,,,,,,,,,,/muse/elements/blink
2024-12-01 16:06:36.777,1.373400364887035,1.185806252117683,1.396857823828309,1.800887857169662,1.282037249455208,0.7965831541321228,0.7375614624354845,1.59773126138888,0.8300591598719753,0.9059940187599893,0.5350099556596913,1.724216569896812,0.8595399346276573,0.5994125949109821,0.3948599513195363,1.774013425469763,0.5271385353907448,0.04459302144077264,-0.1874106522889296,0.9558920208684198,978.3150183150184,815.934065934066,812.3076923076924,855.0183150183151,649.5238095238095,-0.301331,0.090088,0.968323,1.450500,7.297363,11.828308,1,2,1,1,4,60.000000
