TimeStamp,Delta_TP9,Delta_AF7,Delta_AF8,Delta_TP10,Theta_TP9,Theta_AF7,Theta_AF8,Theta_TP10,Alpha_TP9,Alpha_AF7,Alpha_AF8,Alpha_TP10,Beta_TP9,Beta_AF7,Beta_AF8,Beta_TP10,Gamma_TP9,Gamma_AF7,Gamma_AF8,Gamma_TP10,RAW_TP9,RAW_AF7,RAW_AF8,RAW_TP10,AUX_RIGHT,Accelerometer_X,Accelerometer_Y,Accelerometer_Z,Gyro_X,Gyro_Y,Gyro_Z,HeadBandOn,HSI_TP9,HSI_AF7,HSI_AF8,HSI_TP10,Battery,Elements
2024-11-24 16:16:01.672,,,,,,,,,,,,,,,,,,,,,,,,,,,,,,,,,,,,,,/muse/event/connected Muse-D2D3
2024-11-24 16:16:01.750,,,,,,,,,,,,,,,,,,,,,,,,,,,,,,,,,,,,,,/muse/elements/blink
2024-11-24 16:16:01.753,,,,,,,,,,,,,,,,,,,,,,,,,,,,,,,,,,,,,,/muse/elements/blink
2024-11-24 16:16:01.757,,,,,,,,,,,,,,,,,,,,,,,,,,,,,,,,,,,,,,/muse/elements/blink
2024-11-24 16:16:01.762,,,,,,,,,,,,,,,,,,,,,,,,,,,,,,,,,,,,,,/muse/elements/blink
2024-11-24 16:16:02.175,0,0.4074592705477553,0.4234957218469243,0,0,0.1602018308842615,0.3782519474126212,0,0,0.4393490626980411,0.6870108477845256,0,0,0.71620591043219,1.078401138119429,0,0,0.7724038694397833,1.120853560623519,0,799.8168498168499,782.893772893773,798.2051282051282,811.5018315018315,694.6520146520147,-0.278198,0.182251,0.967163,1.689758,-0.889740,3.416901,1,2,1,1,2,75.000000
2024-11-24 16:16:02.533,,,,,,,,,,,,,,,,,,,,,,,,,,,,,,,,,,,,,,/muse/elements/blink
2024-11-24 16:16:02.674,0,1.107604651723249,0.4234957218469243,0,0,0.6888268171014268,0.3782519474126212,0,0,0.8886918751154105,0.6870108477845256,0,0,0.7183698457844503,1.078401138119429,0,0,0.8407079637298112,1.120853560623519,0,776.4468864468864,799.8168498168499,807.8754578754579,785.7142857142858,805.4578754578755,-0.262634,0.179810,0.970032,1.831818,-1.001892,0.859833,1,2,1,1,2,75.000000
2024-11-24 16:16:02.949,,,,,,,,,,,,,,,,,,,,,,,,,,,,,,,,,,,,,,/muse/elements/blink
2024-11-24 16:16:03.173,0,1.107604651723249,1.224551261188798,0,0,0.6888268171014268,1.388088140960651,0,0,0.8886918751154105,0.8012866888780357,0,0,0.7183698457844503,0.550830872663337,0,0,0.8407079637298112,0.6916815477007077,0,805.8608058608058,809.0842490842491,812.3076923076924,767.5824175824176,733.3333333333334,-0.270081,0.189819,0.968140,1.667328,-1.899109,1.263580,1,2,1,1,2,75.000000
2024-11-24 16:16:03.476,,,,,,,,,,,,,,,,,,,,,,,,,,,,,,,,,,,,,,/muse/elements/blink
2024-11-24 16:16:03.662,,,,,,,,,,,,,,,,,,,,,,,,,,,,,,,,,,,,,,/muse/elements/blink
2024-11-24 16:16:03.673,0,1.321378378784386,1.224551261188798,0,0,1.152083025080028,1.388088140960651,0,0,1.00731814957606,0.8012866888780357,0,0,0.6441844045117389,0.550830872663337,0,0,0.7357679597555025,0.6916815477007077,0,1002.087912087912,777.2527472527473,765.1648351648352,920.6959706959707,560.4761904761905,-0.240540,0.178772,0.968384,2.056122,12.590942,-2.018738,1,2,1,1,2,75.000000
2024-11-24 16:16:03.846,,,,,,,,,,,,,,,,,,,,,,,,,,,,,,,,,,,,,,/muse/elements/blink
2024-11-24 16:16:04.077,,,,,,,,,,,,,,,,,,,,,,,,,,,,,,,,,,,,,,/muse/elements/blink
2024-11-24 16:16:04.178,0,1.572296855556543,1.224551261188798,0,0,1.407335094642782,1.388088140960651,0,0,0.9605224748684319,0.8012866888780357,0,0,0.5372928708972056,0.550830872663337,0,0,0.2030310197246691,0.6916815477007077,0,716.007326007326,787.3260073260074,783.2967032967033,770,790.952380952381,-0.305237,0.173828,0.956543,1.682281,-2.841187,-0.575714,1,2,1,1,2,75.000000
2024-11-24 16:16:04.355,,,,,,,,,,,,,,,,,,,,,,,,,,,,,,,,,,,,,,/muse/elements/blink
2024-11-24 16:16:04.673,0,1.472181646085637,1.224551261188798,0,0,1.264611080789815,1.388088140960651,0,0,0.9857671304852025,0.8012866888780357,0,0,0.6274566858079531,0.550830872663337,0,0,0.252748364743196,0.6916815477007077,0,807.4725274725275,776.8498168498169,774.0293040293041,826.4102564102565,748.2417582417582,-0.280396,0.184814,0.953979,2.467346,-3.573914,-0.927124,1,4,1,1,2,60.000000
2024-11-24 16:16:04.699,,,,,,,,,,,,,,,,,,,,,,,,,,,,,,,,,,,,,,/muse/elements/blink
2024-11-24 16:16:05.179,0,1.285636243977171,1.224551261188798,0,0,1.058775475560636,1.388088140960651,0,0,0.8845089894878952,0.8012866888780357,0,0,0.6624281680971358,0.550830872663337,0,0,0.3622083952159114,0.6916815477007077,0,849.3772893772895,770,784.5054945054945,885.2380952380953,791.3553113553114,-0.272583,0.180908,0.967163,0.964508,-2.168274,-3.013153,1,2,1,1,2,60.000000
2024-11-24 16:16:05.285,,,,,,,,,,,,,,,,,,,,,,,,,,,,,,,,,,,,,,/muse/elements/blink
2024-11-24 16:16:05.673,0,1.269372928562644,1.224551261188798,0,0,1.108559275789586,1.388088140960651,0,0,0.8838097759355118,0.8012866888780357,0,0,0.5997034886105655,0.550830872663337,0,0,0.2895300084588371,0.6916815477007077,0,832.4542124542124,810.2930402930403,795.7875457875458,829.2307692307693,886.8498168498169,-0.261169,0.174805,0.950317,-0.732727,-0.403748,3.723450,1,2,1,1,2,60.000000
2024-11-24 16:16:06.022,,,,,,,,,,,,,,,,,,,,,,,,,,,,,,,,,,,,,,/muse/elements/blink
2024-11-24 16:16:06.179,0,1.211519306380045,1.224551261188798,0,0,1.119950382074587,1.388088140960651,0,0,0.8586649034946824,0.8012866888780357,0,0,0.5273590690516069,0.550830872663337,0,0,0.274117891179714,0.6916815477007077,0,740.5860805860806,800.6227106227107,809.0842490842491,811.9047619047619,514.5421245421246,-0.295105,0.171265,0.942566,9.652557,-0.545807,-5.188904,1,2,1,1,2,60.000000
2024-11-24 16:16:06.673,0,1.257894641178171,1.224551261188798,0,0,1.135846965197566,1.388088140960651,0,0,0.871007416426683,0.8012866888780357,0,0,0.3817109259702616,0.550830872663337,0,0,-0.02186049417667453,0.6916815477007077,0,781.2820512820513,795.3846153846154,787.3260073260074,820.7692307692308,775.6410256410256,-0.348694,0.189697,0.938049,0.777588,-3.132782,4.411316,1,2,1,1,2,60.000000
2024-11-24 16:16:07.181,0,1.015957676111567,1.224551261188798,0,0,0.8293466716115105,1.388088140960651,0,0,0.7790012640224979,0.8012866888780357,0,0,0.5077968376415379,0.550830872663337,0,0,0.1202608102640961,0.6916815477007077,0,788.9377289377289,798.2051282051282,796.1904761904763,805.8608058608058,618.901098901099,-0.322876,0.175354,0.946411,0.523376,-3.895416,-2.295380,1,2,1,1,2,60.000000
2024-11-24 16:16:07.673,0,0.7716778848021515,-0.1395589587539379,0,0,0.5859698721834949,-0.08437402887201148,0,0,0.8070836563040888,0.09121150458008874,0,0,0.4792765299540279,0.5214276163369138,0,0,0.2896790774871271,0.2172131380899467,0,807.8754578754579,808.2783882783883,798.2051282051282,792.1611721611722,1269.230769230769,-0.330933,0.166992,0.907532,1.039276,2.856140,6.901093,1,2,1,1,2,60.000000
2024-11-24 16:16:07.911,,,,,,,,,,,,,,,,,,,,,,,,,,,,,,,,,,,,,,/muse/elements/blink
2024-11-24 16:16:08.178,0,0.4640576388573583,0.328992873971314,0,0,0.262580915893801,0.3563320057245151,0,0,0.5608600299805739,0.6785667152380033,0,0,0.4434087912089289,0.6234433839310539,0,0,0.4507316847023667,0.2478185352314065,0,870.3296703296703,789.3406593406594,766.3736263736264,948.901098901099,1052.051282051282,-0.520264,0.174744,0.892395,-9.241333,10.512390,36.494293,1,2,1,1,2,60.000000
2024-11-24 16:16:08.211,,,,,,,,,,,,,,,,,,,,,,,,,,,,,,,,,,,,,,/muse/elements/blink
2024-11-24 16:16:08.678,0,0.7527095614210678,0.3661494214270207,0,0,0.6499893937488495,0.4230755367839944,0,0,0.7576188668489273,0.6748213682928662,0,0,0.5322925625224499,0.6644089686440521,0,0,0.501268453836279,0.2356034896322903,0,643.8827838827839,793.7728937728938,794.981684981685,790.5494505494506,841.3186813186813,-0.261841,0.194946,0.832520,11.260071,-26.288452,-25.981903,1,2,1,1,2,60.000000
2024-11-24 16:16:08.942,,,,,,,,,,,,,,,,,,,,,,,,,,,,,,,,,,,,,,/muse/elements/blink
2024-11-24 16:16:09.172,0,0.8612200622244546,0.6624486381595456,0,0,0.7802660091050418,0.6817749075776244,0,0,0.9449102068083193,0.6748213682928662,0,0,0.671538760408025,0.7590093615766145,0,0,0.4932023633071176,0.2966796795718158,0,848.1684981684982,782.4908424908425,773.2234432234433,830.4395604395604,674.5054945054945,-0.304688,0.137573,0.915100,-0.822449,14.415283,-1.465454,1,2,1,1,2,60.000000
2024-11-24 16:16:09.332,,,,,,,,,,,,,,,,,,,,,,,,,,,,,,,,,,,,,,/muse/elements/blink
2024-11-24 16:16:09.673,0,1.034951090367107,0.6624486381595456,0,0,0.9467920664943645,0.6817749075776244,0,0,1.078983057091901,0.6748213682928662,0,0,0.7726771157810253,0.7590093615766145,0,0,0.4952283992173614,0.2966796795718158,0,875.9706959706959,787.7289377289378,812.7106227106227,775.6410256410256,184.5421245421246,-0.337158,0.195007,1.038391,-4.515991,7.110443,2.235565,1,2,1,1,2,60.000000
2024-11-24 16:16:09.744,,,,,,,,,,,,,,,,,,,,,,,,,,,,,,,,,,,,,,/muse/elements/blink
2024-11-24 16:16:10.173,0,1.037069615475542,0.6624486381595456,0,0,0.952227782156238,0.6817749075776244,0,0,1.078723051884558,0.6748213682928662,0,0,0.7963078603297621,0.7590093615766145,0,0,0.5103071118162801,0.2966796795718158,0,466.996336996337,783.2967032967033,771.2087912087912,754.6886446886447,774.4322344322345,-0.443970,0.185913,0.952698,13.346100,2.699127,14.811554,1,2,1,1,2,60.000000
2024-11-24 16:16:10.673,0,1.127132311121247,0.6624486381595456,0,0,1.024996203710295,0.6817749075776244,0,0,1.048703825447602,0.6748213682928662,0,0,0.8060264552424203,0.7590093615766145,0,0,0.557253377820669,0.2966796795718158,0,1019.413919413919,749.4505494505495,776.4468864468864,833.6630036630037,85.82417582417582,-0.651917,0.296082,1.357483,5.114136,-14.908752,1.547699,1,2,1,1,2,60.000000
2024-11-24 16:16:10.793,,,,,,,,,,,,,,,,,,,,,,,,,,,,,,,,,,,,,,/muse/elements/blink
2024-11-24 16:16:11.173,0,1.130030962788334,0.6624486381595456,0,0,1.053146102855944,0.6817749075776244,0,0,0.7226407495377192,0.6748213682928662,0,0,0.8507447746597709,0.7590093615766145,0,0,0.5294562092048274,0.2966796795718158,0,929.1575091575091,763.956043956044,789.3406593406594,723.6630036630037,882.8205128205128,-0.612183,0.237000,1.589172,13.660126,7.484283,-10.340424,1,2,1,1,2,60.000000
2024-11-24 16:16:11.390,,,,,,,,,,,,,,,,,,,,,,,,,,,,,,,,,,,,,,/muse/elements/blink
2024-11-24 16:16:11.669,,,,,,,,,,,,,,,,,,,,,,,,,,,,,,,,,,,,,,/muse/elements/blink
2024-11-24 16:16:11.684,0,1.130030962788334,0.6624486381595456,0,0,1.053146102855944,0.6817749075776244,0,0,0.7226407495377192,0.6748213682928662,0,0,0.8507447746597709,0.7590093615766145,0,0,0.5294562092048274,0.2966796795718158,0,767.1794871794872,796.996336996337,807.4725274725275,825.2014652014652,909.4139194139194,-0.474670,0.191589,1.091919,5.525360,-12.247009,8.762817,1,4,1,1,2,60.000000
2024-11-24 16:16:11.991,,,,,,,,,,,,,,,,,,,,,,,,,,,,,,,,,,,,,,/muse/elements/blink
2024-11-24 16:16:12.173,0,1.130030962788334,0.7990336248317268,0,0,1.053146102855944,0.2703099072266342,0,0,0.7226407495377192,0.2409238119755019,0,0,0.8507447746597709,0.5011099355839456,0,0,0.5294562092048274,0.2646211632132481,0,731.3186813186813,801.4285714285714,815.5311355311355,791.7582417582418,783.2967032967033,-0.364380,0.183716,0.937256,-1.308441,5.345917,5.196381,1,4,1,1,2,60.000000
2024-11-24 16:16:12.382,,,,,,,,,,,,,,,,,,,,,,,,,,,,,,,,,,,,,,/muse/elements/blink
2024-11-24 16:16:12.673,0,1.130030962788334,0.7730684553751368,0,0,1.053146102855944,0.280222329921944,0,0,0.7226407495377192,0.2424358656012371,0,0,0.8507447746597709,0.4852384651310581,0,0,0.5294562092048274,0.2808780759179766,0,813.1135531135532,810.6959706959707,822.3809523809524,803.040293040293,832.8571428571429,-0.361816,0.131165,0.870361,-0.314026,8.374023,4.897308,1,4,1,1,2,60.000000
2024-11-24 16:16:12.982,,,,,,,,,,,,,,,,,,,,,,,,,,,,,,,,,,,,,,/muse/elements/blink
2024-11-24 16:16:13.173,0,1.130030962788334,0.7730684553751368,0,0,1.053146102855944,0.280222329921944,0,0,0.7226407495377192,0.2424358656012371,0,0,0.8507447746597709,0.4852384651310581,0,0,0.5294562092048274,0.2808780759179766,0,651.1355311355312,792.967032967033,813.919413919414,864.2857142857143,1253.113553113553,-0.262756,0.121704,0.727905,-2.325287,4.987030,-5.091705,1,4,1,1,2,60.000000
2024-11-24 16:16:13.598,,,,,,,,,,,,,,,,,,,,,,,,,,,,,,,,,,,,,,/muse/elements/blink
2024-11-24 16:16:13.672,0,-0.1781823915011421,0.7518486095556859,0,0,0.2644206691473375,0.240835168050717,0,0,0.5574955140331305,0.1255093392353909,0,0,0.6060469598989248,0.4435272941384867,0,0,0.6903341180505224,0.2756229615811521,0,681.3553113553114,801.4285714285714,816.3369963369963,831.2454212454213,705.5311355311355,-0.201721,0.082886,0.584167,7.125397,5.473022,6.280518,1,4,1,1,2,60.000000
2024-11-24 16:16:13.853,,,,,,,,,,,,,,,,,,,,,,,,,,,,,,,,,,,,,,/muse/elements/blink
2024-11-24 16:16:14.173,0,0.08246265427661476,0.7455472717893967,0,0,0.1023688110541733,0.5355483485826708,0,0,0.6210178475089307,0.6307889080000995,0,0,0.7901072636311363,0.8473555960547925,0,0,0.7116698191868152,0.7450606391669413,0,923.5164835164835,816.3369963369963,795.3846153846154,755.0915750915751,1077.838827838828,-0.214233,0.133362,0.681946,-3.566437,6.243134,0.351410,1,2,1,1,2,60.000000
2024-11-24 16:16:14.637,,,,,,,,,,,,,,,,,,,,,,,,,,,,,,,,,,,,,,/muse/elements/blink
2024-11-24 16:16:14.673,0,0.5739676410868291,0.5914300500468187,0,0,0.1771205329099674,0.3500878290056948,0,0,0.6210178475089307,0.6338395306256477,0,0,0.7976127126062189,0.7394828717101987,0,0,0.6360648873933966,0.6404364037996791,0,482.7106227106227,807.8754578754579,804.6520146520147,836.8864468864469,889.6703296703297,-0.209167,0.134888,0.718628,5.757141,-10.482483,1.024323,1,4,1,1,2,60.000000
2024-11-24 16:16:14.823,,,,,,,,,,,,,,,,,,,,,,,,,,,,,,,,,,,,,,/muse/elements/blink
2024-11-24 16:16:15.148,,,,,,,,,,,,,,,,,,,,,,,,,,,,,,,,,,,,,,/muse/elements/blink
2024-11-24 16:16:15.181,0,0.6162394514395418,0.4991625919165636,0,0,0.1979830006531925,0.1811160362809019,0,0,0.4984110233173131,0.4660608605274896,0,0,0.7651383863369622,0.6213546433897865,0,0,0.5577643071804136,0.5456063463731242,0,1026.666666666667,817.5457875457876,793.7728937728938,719.6336996336996,1582.710622710623,-0.191772,0.115295,0.668152,-1.742096,2.990723,5.248718,1,4,1,1,2,65.000000
2024-11-24 16:16:15.519,,,,,,,,,,,,,,,,,,,,,,,,,,,,,,,,,,,,,,/muse/elements/blink
2024-11-24 16:16:15.672,0,0.7402999261765074,0.4394773423607904,0,0,0.2477528992761177,-0.05850627629428429,0,0,0.2603060316535754,0.3154316824744839,0,0,0.6615263718742661,0.4592897020844717,0,0,0.4464362783017118,0.4065355743513412,0,709.1575091575091,800.2197802197802,801.8315018315019,866.7032967032967,966.2271062271062,-0.192627,0.116699,0.764221,-2.063599,-16.478882,13.652649,1,4,1,1,2,65.000000
2024-11-24 16:16:15.752,,,,,,,,,,,,,,,,,,,,,,,,,,,,,,,,,,,,,,/muse/elements/blink
2024-11-24 16:16:16.130,,,,,,,,,,,,,,,,,,,,,,,,,,,,,,,,,,,,,,/muse/elements/blink
2024-11-24 16:16:16.172,0,0.5419368075692796,0.5717679165808696,0,0,0.2182989010188746,0.05228214721338396,0,0,0.1913244618919774,0.2473879537888583,0,0,0.5109500771659691,0.3997155312558221,0,0,0.4408767083143482,0.3842300686711294,0,968.2417582417582,806.6666666666667,794.981684981685,714.3956043956044,1239.81684981685,-0.273804,0.157593,0.858704,-5.906677,1.966400,9.772186,1,2,1,1,2,65.000000
2024-11-24 16:16:16.382,,,,,,,,,,,,,,,,,,,,,,,,,,,,,,,,,,,,,,/muse/elements/blink
2024-11-24 16:16:16.659,,,,,,,,,,,,,,,,,,,,,,,,,,,,,,,,,,,,,,/muse/elements/blink
2024-11-24 16:16:16.674,0,0.618237240491879,0.6285125055142342,0,0,0.05080828143780957,0.04514313433603533,0,0,0.134977739291445,0.05824548749887758,0,0,0.5506531309139714,0.3799829883831218,0,0,0.5072768502225899,0.3395805199759774,0,848.5714285714286,783.2967032967033,786.9230769230769,787.3260073260074,806.2637362637363,-0.228027,0.083435,0.993896,-4.650574,-10.362854,8.575897,1,2,1,1,2,65.000000
2024-11-24 16:16:17.182,0,0.9864435649127649,0.6285125055142342,0,0,0.7258965706276329,0.04514313433603533,0,0,0.7354737415228876,0.05824548749887758,0,0,0.3567448123361622,0.3799829883831218,0,0,0.1399484866214598,0.3395805199759774,0,818.3516483516484,800.2197802197802,799.4139194139194,850.1831501831502,790.5494505494506,-0.264221,0.183228,0.995911,5.443115,-10.714264,-3.970184,1,2,1,1,2,65.000000
2024-11-24 16:16:17.238,,,,,,,,,,,,,,,,,,,,,,,,,,,,,,,,,,,,,,/muse/elements/blink
2024-11-24 16:16:17.492,,,,,,,,,,,,,,,,,,,,,,,,,,,,,,,,,,,,,,/muse/elements/blink
2024-11-24 16:16:17.673,0,0.9864435649127649,0.6285125055142342,0,0,0.7258965706276329,0.04514313433603533,0,0,0.7354737415228876,0.05824548749887758,0,0,0.3567448123361622,0.3799829883831218,0,0,0.1399484866214598,0.3395805199759774,0,826.8131868131868,800.2197802197802,813.1135531135532,1412.673992673993,47.14285714285715,-0.306519,0.172302,1.148376,1.779480,9.323578,29.653015,1,2,1,1,2,65.000000
2024-11-24 16:16:17.793,,,,,,,,,,,,,,,,,,,,,,,,,,,,,,,,,,,,,,/muse/elements/blink
2024-11-24 16:16:17.960,,,,,,,,,,,,,,,,,,,,,,,,,,,,,,,,,,,,,,/muse/elements/blink
2024-11-24 16:16:18.173,0,0.9864435649127649,1.322744623120631,0,0,0.7258965706276329,1.005123886205948,0,0,0.7354737415228876,0.7820602355133417,0,0,0.3567448123361622,0.5451335314364937,0,0,0.1399484866214598,0.3465499553559905,0,859.4505494505495,797.3992673992674,804.2490842490843,898.5347985347986,1642.344322344322,-0.283813,0.208313,1.033264,14.295654,14.901276,-11.618958,1,2,1,1,2,65.000000
2024-11-24 16:16:18.302,,,,,,,,,,,,,,,,,,,,,,,,,,,,,,,,,,,,,,/muse/elements/blink
2024-11-24 16:16:18.565,,,,,,,,,,,,,,,,,,,,,,,,,,,,,,,,,,,,,,/muse/elements/blink
2024-11-24 16:16:18.673,0,0.625882504216336,1.293078948969855,0,0,0.422884735615831,0.9749275642788218,0,0,0.3791247452304203,0.7954863676130491,0,0,0.1647304428533287,0.48570115885819,0,0,0.003539554641632673,0.2905461436780675,0,815.1282051282052,788.1318681318681,786.1172161172161,823.1868131868132,1291.391941391941,-0.251770,0.178101,1.099609,13.189087,-7.416992,14.273224,1,2,1,1,2,65.000000
2024-11-24 16:16:19.176,0,0.5931528387861376,1.12714453941752,0,0,-0.1071033132188123,0.7555943076059072,0,0,0.3640534428658928,0.7202820320451949,0,0,0.1588824798974229,0.4179129095805472,0,0,-0.1507520450176907,0.2149048472552698,0,847.7655677655678,784.9084249084249,801.8315018315019,796.1904761904763,1336.923076923077,-0.282104,0.177429,1.345825,2.923431,-9.899292,-6.310425,1,2,1,1,2,65.000000
2024-11-24 16:16:19.325,,,,,,,,,,,,,,,,,,,,,,,,,,,,,,,,,,,,,,/muse/elements/blink
2024-11-24 16:16:19.673,0,0.6340711410941263,0.9061366316537406,0,0,0.07062426608105832,0.5712810373139267,0,0,0.4048173589266962,0.5568923012933176,0,0,0.1593419294689525,0.3739337952598483,0,0,-0.1545347044611922,0.210702928965826,0,737.7655677655678,812.3076923076924,824.7985347985348,753.8827838827839,1075.824175824176,-0.261108,0.146851,1.136292,6.572113,-15.230255,1.173859,1,2,1,1,2,65.000000
2024-11-24 16:16:19.792,,,,,,,,,,,,,,,,,,,,,,,,,,,,,,,,,,,,,,/muse/elements/blink
2024-11-24 16:16:20.173,0,0.9326617953081322,0.7596618497069139,0,0,0.5436813868820268,0.712076265402013,0,0,0.4628363144761224,0.7966990707223924,0,0,0.1474362388105423,0.3750292331298015,0,0,-0.2324966012185813,0.1893291271776465,0,814.7252747252747,791.3553113553114,816.3369963369963,664.0293040293041,120.4761904761905,-0.360596,0.183960,1.485352,1.682281,-9.697418,8.628235,1,2,1,1,2,65.000000
2024-11-24 16:16:20.389,,,,,,,,,,,,,,,,,,,,,,,,,,,,,,,,,,,,,,/muse/elements/blink
2024-11-24 16:16:20.682,0,1.018178199907263,0.774447792629947,0,0,0.7894445841559679,0.8643747799542856,0,0,0.4463237254934448,0.7549430373391949,0,0,0.05109594195359207,0.4132154093347232,0,0,-0.2320389588564548,0.2873600918846299,0,781.6849816849817,806.2637362637363,806.2637362637363,888.4615384615385,1104.432234432235,-0.326599,0.171997,1.210083,0.463562,-6.923523,1.764526,1,2,1,1,2,65.000000
2024-11-24 16:16:21.153,,,,,,,,,,,,,,,,,,,,,,,,,,,,,,,,,,,,,,/muse/elements/blink
2024-11-24 16:16:21.173,0,1.012119640751134,0.9423462901554515,0,0,0.7808408527638762,0.9899463640892184,0,0,0.4627452051786082,0.8036362505549176,0,0,-0.07820381497450775,0.5184305383079185,0,0,-0.3028367639818303,0.3112074838432106,0,756.3003663003664,792.5641025641025,802.2344322344322,839.7069597069598,734.9450549450549,-0.357666,0.136414,1.135559,5.144043,-3.297272,-0.844879,1,2,1,1,2,65.000000
2024-11-24 16:16:21.430,,,,,,,,,,,,,,,,,,,,,,,,,,,,,,,,,,,,,,/muse/elements/blink
2024-11-24 16:16:21.674,0,0.8827855952806798,0.6226936628413008,0,0,0.6436646649214056,0.4363840798934903,0,0,0.3619113420942434,0.4795670724857112,0,0,-0.05158360691160911,0.7518451661665903,0,0,-0.318248313999028,0.2536178688144825,0,894.5054945054945,833.2600732600733,755.0915750915751,847.3626373626374,1227.728937728938,-0.268555,0.152893,1.040588,4.142151,5.906677,-5.861816,1,2,1,1,2,65.000000
2024-11-24 16:16:22.174,0,0.9416150672076955,0.6174884717233223,0,0,0.523199276989088,0.4124066644224949,0,0,0.8265525713460717,0.485016101691945,0,0,0.06540671628423061,0.7246029888819251,0,0,-0.3032386922945332,0.2530544441614828,0,831.6483516483516,808.2783882783883,796.996336996337,867.5091575091575,1148.351648351648,-0.266479,0.120117,1.132019,3.588867,15.215302,5.816956,1,4,1,1,2,65.000000
2024-11-24 16:16:22.448,,,,,,,,,,,,,,,,,,,,,,,,,,,,,,,,,,,,,,/muse/elements/blink
2024-11-24 16:16:22.673,0,1.272164590735306,0.4891970125393408,0,0,0.9395267960286817,0.1462099754427626,0,0,0.9525042798508364,0.3398778946274216,0,0,0.3482050233530927,0.7741062217886787,0,0,-0.2594421131133825,0.1791969729661849,0,810.2930402930403,788.1318681318681,797.8021978021978,796.996336996337,303.8095238095238,-0.303406,0.148376,0.926270,-1.293488,5.570221,-5.121613,1,2,1,1,2,65.000000
2024-11-24 16:16:22.747,,,,,,,,,,,,,,,,,,,,,,,,,,,,,,,,,,,,,,/muse/elements/blink
2024-11-24 16:16:23.069,,,,,,,,,,,,,,,,,,,,,,,,,,,,,,,,,,,,,,/muse/elements/blink
2024-11-24 16:16:23.176,0,1.326985796859615,0.4742301000069277,0,0,0.9136295669767373,0.01467166915039061,0,0,1.061996551909642,0.3071299338715423,0,0,0.4067688231055089,0.6617150429856549,0,0,-0.2127177236611289,0.1557421000555138,0,630.5860805860806,800.6227106227107,814.3223443223443,772.4175824175825,154.3223443223443,-0.294678,0.075867,0.771484,8.643188,15.192871,6.325378,1,2,1,1,2,65.000000
2024-11-24 16:16:23.673,0,1.29371893233236,0.6558782230827602,0,0,0.8879751429493689,0.1683695210612134,0,0,1.0852598805147,0.4963688105054169,0,0,0.3953421075691088,0.6420587170471151,0,0,-0.1701449436050866,0.2018615289273681,0,708.3516483516484,811.9047619047619,797.3992673992674,782.0879120879121,169.2307692307692,-0.303955,0.138855,0.767273,1.988831,4.396362,-10.048828,1,2,1,1,2,65.000000
2024-11-24 16:16:23.781,,,,,,,,,,,,,,,,,,,,,,,,,,,,,,,,,,,,,,/muse/elements/blink
2024-11-24 16:16:24.179,0,1.018949849603278,0.8230820277796677,0,0,0.4249328568239561,0.4362290463043171,0,0,0.8428657179720648,0.590421332828609,0,0,0.2660859416960599,0.6759991476582408,0,0,-0.09075718188218121,0.1916079009122248,0,749.8534798534798,808.6813186813187,805.8608058608058,965.4212454212454,515.7509157509157,-0.278870,0.116699,0.732666,4.628143,6.145935,-2.908478,1,2,1,1,2,65.000000
2024-11-24 16:16:24.673,0,0.9211037582815413,0.7112462853357483,0,0,0.3965239622837854,0.3879524276714844,0,0,0.8213376127395366,0.6122238151200545,0,0,0.253336918300069,0.5945886265247848,0,0,0.04957779792524974,0.1929886183271391,0,816.7399267399268,795.3846153846154,801.8315018315019,693.8461538461538,784.1025641025641,-0.242065,0.080933,0.645447,-6.130981,2.086029,-25.869751,1,2,1,1,2,65.000000
2024-11-24 16:16:24.683,,,,,,,,,,,,,,,,,,,,,,,,,,,,,,,,,,,,,,/muse/elements/blink
2024-11-24 16:16:24.895,,,,,,,,,,,,,,,,,,,,,,,,,,,,,,,,,,,,,,/muse/elements/blink
2024-11-24 16:16:25.173,0,0.7395138183917755,0.6249956863808864,0,0,0.2820702545260257,0.4169817337776456,0,0,0.6243258344283299,0.6062535026270939,0,0,0.2915555724137676,0.5234338229644195,0,0,0.07519114612808829,0.1789040245348709,0,800.6227106227107,805.8608058608058,809.4871794871796,815.1282051282052,1181.794871794872,-0.139099,0.081299,0.650757,9.944153,-5.263672,13.286285,1,2,1,1,2,75.000000
2024-11-24 16:16:25.179,,,,,,,,,,,,,,,,,,,,,,,,,,,,,,,,,,,,,,/muse/elements/blink
2024-11-24 16:16:25.593,,,,,,,,,,,,,,,,,,,,,,,,,,,,,,,,,,,,,,/muse/elements/blink
2024-11-24 16:16:25.673,0,0.6963006940204018,0.4008373966418899,0,0,0.3867151856144032,0.2614066962459538,0,0,0.5757546461337985,0.4648388587583807,0,0,0.3347403031270245,0.3979514389146028,0,0,0.04886967078221401,0.2662064870121733,0,828.021978021978,802.6373626373627,798.6080586080586,784.5054945054945,1520.659340659341,-0.178467,0.140625,0.699402,2.332764,5.659943,-1.330872,1,4,1,1,2,75.000000
2024-11-24 16:16:25.802,,,,,,,,,,,,,,,,,,,,,,,,,,,,,,,,,,,,,,/muse/elements/blink
2024-11-24 16:16:26.186,0,0.4367863091932472,0.3594482898958386,0,0,0.3880756383723898,0.1855397512925125,0,0,0.7455882244755753,0.2570899296490025,0,0,0.4882891313869325,0.4851580722393909,0,0,0.005846383945849162,0.4520317657332239,0,875.1648351648352,804.2490842490843,791.7582417582418,970.6593406593407,1501.721611721612,-0.194092,0.105591,0.700378,0.949554,-4.329071,-1.951447,1,2,1,1,2,75.000000
2024-11-24 16:16:26.483,,,,,,,,,,,,,,,,,,,,,,,,,,,,,,,,,,,,,,/muse/elements/blink
2024-11-24 16:16:26.680,0,0.3866549231528748,0.3301914962331069,0,0,0.3130104857798063,0.04773362865376567,0,0,0.691666897227951,0.2836942726144732,0,0,0.4732362130419319,0.5733034528124848,0,0,0.02100919930518302,0.5169193116953581,0,766.3736263736264,805.8608058608058,806.2637362637363,833.6630036630037,1402.600732600733,-0.236206,0.162720,0.682617,4.067383,-8.628235,-3.125305,1,2,1,1,2,75.000000
2024-11-24 16:16:26.737,,,,,,,,,,,,,,,,,,,,,,,,,,,,,,,,,,,,,,/muse/elements/blink
2024-11-24 16:16:27.173,0,0.1036485836203186,0.163552627007777,0,0,0.111099077537091,-0.01991986147617991,0,0,0.681015218247321,0.3863468128491747,0,0,0.5292756254214865,0.6177209605771208,0,0,0.1245544046789272,0.503928479353701,0,1016.996336996337,794.5787545787546,756.3003663003664,977.5091575091575,1199.52380952381,-0.358948,0.186646,1.047119,2.736511,-8.815155,-5.600128,1,2,1,1,2,75.000000
2024-11-24 16:16:27.255,,,,,,,,,,,,,,,,,,,,,,,,,,,,,,,,,,,,,,/muse/elements/blink
2024-11-24 16:16:27.625,,,,,,,,,,,,,,,,,,,,,,,,,,,,,,,,,,,,,,/muse/elements/blink
2024-11-24 16:16:27.673,0,0.05243039053302947,0.1671070431527149,0,0,0.02869315418010589,-0.02901869483101668,0,0,0.2145950958419967,0.3826032322172278,0,0,0.3827274746615016,0.627413941039303,0,0,0.1562614073585449,0.3889990073062196,0,714.3956043956044,806.6666666666667,808.6813186813187,1093.150183150183,994.4322344322345,-0.294861,0.190613,0.708679,5.839386,-1.682281,-1.368256,1,2,1,1,2,75.000000
2024-11-24 16:16:28.040,,,,,,,,,,,,,,,,,,,,,,,,,,,,,,,,,,,,,,/muse/elements/blink
2024-11-24 16:16:28.173,0,0.2133162668891101,0.2251359645463587,0,0,0.06372991725520068,0.0763971485655587,0,0,0.07260645486108726,0.282681251571721,0,0,0.4668650336390229,0.5691422553881672,0,0,0.2549564930055349,0.3002092790202509,0,947.6923076923077,777.6556776556777,780.4761904761905,944.0659340659341,1581.501831501831,-0.483398,0.126953,0.999817,-0.598145,-4.882355,2.153320,1,2,1,1,2,75.000000
2024-11-24 16:16:28.203,,,,,,,,,,,,,,,,,,,,,,,,,,,,,,,,,,,,,,/muse/elements/blink
2024-11-24 16:16:28.553,,,,,,,,,,,,,,,,,,,,,,,,,,,,,,,,,,,,,,/muse/elements/blink
2024-11-24 16:16:28.672,0,1.470845169823999,0.2251359645463587,0,0,1.336691031546699,0.0763971485655587,0,0,0.5882889703633015,0.282681251571721,0,0,0.5296056242082121,0.5691422553881672,0,0,-0.08000687696324123,0.3002092790202509,0,714.7985347985348,790.1465201465202,763.5531135531136,538.7179487179487,396.4835164835165,-0.346375,0.222473,0.914734,-5.241241,-4.044952,-5.473022,1,2,1,1,2,75.000000
2024-11-24 16:16:28.831,,,,,,,,,,,,,,,,,,,,,,,,,,,,,,,,,,,,,,/muse/elements/blink
2024-11-24 16:16:29.149,,,,,,,,,,,,,,,,,,,,,,,,,,,,,,,,,,,,,,/muse/elements/blink
2024-11-24 16:16:29.173,0,1.488645154809847,0.2251359645463587,0,0,1.292798765091002,0.0763971485655587,0,0,0.6818948940825315,0.282681251571721,0,0,0.5465005103699849,0.5691422553881672,0,0,0.01051733982144233,0.3002092790202509,0,805.4578754578755,812.3076923076924,820.3663003663004,880.8058608058608,950.1098901098901,-0.326965,0.177551,0.994873,5.540314,11.648865,5.293579,1,2,1,1,2,75.000000
2024-11-24 16:16:29.673,0,1.488645154809847,0.2251359645463587,0,0,1.292798765091002,0.0763971485655587,0,0,0.6818948940825315,0.282681251571721,0,0,0.5465005103699849,0.5691422553881672,0,0,0.01051733982144233,0.3002092790202509,0,971.0622710622711,800.2197802197802,790.1465201465202,942.4542124542124,943.2600732600733,-0.284485,0.205078,0.803345,-2.751465,3.790741,-17.099457,1,2,1,1,2,75.000000
2024-11-24 16:16:29.687,,,,,,,,,,,,,,,,,,,,,,,,,,,,,,,,,,,,,,/muse/elements/blink
2024-11-24 16:16:29.973,,,,,,,,,,,,,,,,,,,,,,,,,,,,,,,,,,,,,,/muse/elements/blink
2024-11-24 16:16:30.160,,,,,,,,,,,,,,,,,,,,,,,,,,,,,,,,,,,,,,/muse/elements/blink
2024-11-24 16:16:30.174,0,1.386404029597147,0.2251359645463587,0,0,1.126306874412241,0.0763971485655587,0,0,0.6704829885006353,0.282681251571721,0,0,0.6024100492834069,0.5691422553881672,0,0,0.1636357472714234,0.3002092790202509,0,690.2197802197802,797.3992673992674,801.4285714285714,631.3919413919414,1497.692307692308,-0.350708,0.184509,1.068054,6.362762,2.407532,7.035675,1,2,1,1,2,75.000000
2024-11-24 16:16:30.368,,,,,,,,,,,,,,,,,,,,,,,,,,,,,,,,,,,,,,/muse/elements/blink
2024-11-24 16:16:30.649,,,,,,,,,,,,,,,,,,,,,,,,,,,,,,,,,,,,,,/muse/elements/blink
2024-11-24 16:16:30.674,0,1.141270330388427,1.245138352240424,0,0,1.00645825334049,1.158523670261741,0,0,0.9921879552644173,1.033612187608213,0,0,0.6443735188436402,0.4746480405995303,0,0,0.3648447471215667,0.3858318892683943,0,774.8351648351648,809.8901098901099,813.5164835164835,824.7985347985348,871.1355311355312,-0.454163,0.259399,1.460754,-8.613281,2.272949,4.396362,1,2,1,1,2,75.000000
2024-11-24 16:16:30.991,,,,,,,,,,,,,,,,,,,,,,,,,,,,,,,,,,,,,,/muse/elements/blink
2024-11-24 16:16:31.178,0,1.155678136328778,1.185762517172334,0,0,0.987721297913957,1.084817744212505,0,0,0.9998063463634793,1.033669565614277,0,0,0.6636845332703657,0.5153185717656948,0,0,0.3564805275535509,0.4002656192022311,0,557.6556776556777,790.952380952381,812.7106227106227,529.047619047619,394.0659340659341,-0.390991,0.292297,1.096436,13.420868,-4.605713,-17.301331,1,2,1,1,2,75.000000
2024-11-24 16:16:31.291,,,,,,,,,,,,,,,,,,,,,,,,,,,,,,,,,,,,,,/muse/elements/blink
2024-11-24 16:16:31.672,0,1.199378672962601,1.185762517172334,0,0,1.044515883135807,1.084817744212505,0,0,0.9998063463634793,1.033669565614277,0,0,0.7958353534825852,0.5153185717656948,0,0,0.4760681394996242,0.4002656192022311,0,839.7069597069598,786.9230769230769,794.1758241758242,823.1868131868132,856.6300366300367,-0.439209,0.247131,1.145386,7.686157,-0.067291,5.278625,1,2,1,1,2,75.000000
2024-11-24 16:16:31.958,,,,,,,,,,,,,,,,,,,,,,,,,,,,,,,,,,,,,,/muse/elements/blink
2024-11-24 16:16:32.173,0,1.127040020680101,1.162961111613164,0,0,0.8961828894277131,1.042403746916453,0,0,0.9026420480226269,1.029947582029986,0,0,0.827233622006728,0.5356576502390481,0,0,0.5633011755046839,0.4217009179261848,0,747.032967032967,788.9377289377289,799.8168498168499,749.8534798534798,366.2637362637363,-0.495239,0.214600,1.192749,-4.665527,-17.047119,6.721649,1,2,1,1,2,75.000000
2024-11-24 16:16:32.373,,,,,,,,,,,,,,,,,,,,,,,,,,,,,,,,,,,,,,/muse/elements/blink
2024-11-24 16:16:32.679,0,1.217046136551154,1.162961111613164,0,0,0.9169259374790899,1.042403746916453,0,0,0.9267426426266283,1.029947582029986,0,0,0.909159557600647,0.5356576502390481,0,0,0.6098969056118291,0.4217009179261848,0,850.989010989011,804.6520146520147,811.5018315018315,823.992673992674,1054.065934065934,-0.450073,0.152771,1.107849,-1.211243,-10.123596,13.084412,1,2,1,1,2,75.000000
2024-11-24 16:16:32.808,,,,,,,,,,,,,,,,,,,,,,,,,,,,,,,,,,,,,,/muse/elements/blink
2024-11-24 16:16:33.173,0,1.063368970443967,0.9425112630006789,0,0,0.7576328159451342,0.3460484432912033,0,0,0.9276423888007664,0.3072830215319485,0,0,0.9088545481554242,0.746330748838542,0,0,0.6240725800294202,0.433366204994285,0,622.9304029304029,805.4578754578755,782.0879120879121,778.8644688644689,214.3589743589744,-0.391479,0.174194,1.176697,6.938477,-2.302856,-17.495728,1,2,1,1,2,75.000000
2024-11-24 16:16:33.340,,,,,,,,,,,,,,,,,,,,,,,,,,,,,,,,,,,,,,/muse/elements/blink
2024-11-24 16:16:33.681,0,0.935990129163092,0.7558832315520975,0,0,0.632566993419503,0.4365792641802778,0,0,0.9407400272612656,0.3805558405685646,0,0,0.8103181023413554,0.734346962795815,0,0,0.4891814513365739,0.3116142325766832,0,741.7948717948718,807.8754578754579,803.8461538461539,769.5970695970697,305.018315018315,-0.355591,0.126526,0.942505,5.502930,7.611389,3.544006,1,2,1,1,2,75.000000
2024-11-24 16:16:33.737,,,,,,,,,,,,,,,,,,,,,,,,,,,,,,,,,,,,,,/muse/elements/blink
2024-11-24 16:16:34.036,,,,,,,,,,,,,,,,,,,,,,,,,,,,,,,,,,,,,,/muse/elements/blink
2024-11-24 16:16:34.173,0,0.7607824145747012,0.6286876927840441,0,0,0.4827727313151586,0.4876163896193549,0,0,0.8537469315950443,0.6168644688008785,0,0,0.7221735114791666,0.7293748388622674,0,0,0.4758189904136384,0.4381079237014047,0,733.7362637362637,788.9377289377289,792.967032967033,821.1721611721612,170.8424908424909,-0.281555,0.110962,0.724243,-4.426270,7.170258,-5.009460,1,2,1,1,2,75.000000
2024-11-24 16:16:34.312,,,,,,,,,,,,,,,,,,,,,,,,,,,,,,,,,,,,,,/muse/elements/blink
2024-11-24 16:16:34.545,,,,,,,,,,,,,,,,,,,,,,,,,,,,,,,,,,,,,,/muse/elements/blink
2024-11-24 16:16:34.673,0,0.7408185577087238,0.3400329176762527,0,0,0.5806352697705569,0.516155640710584,0,0,0.8363252148312377,0.7187594693410871,0,0,0.7011870347157234,0.7790903523042361,0,0,0.4707893664317039,0.5819217059821415,0,682.967032967033,806.6666666666667,782.893772893773,832.4542124542124,173.2600732600733,-0.202271,0.072937,0.699951,10.325470,-8.366547,0.254211,1,2,1,1,2,75.000000
2024-11-24 16:16:34.939,,,,,,,,,,,,,,,,,,,,,,,,,,,,,,,,,,,,,,/muse/elements/blink
2024-11-24 16:16:35.146,,,,,,,,,,,,,,,,,,,,,,,,,,,,,,,,,,,,,,/muse/elements/blink
2024-11-24 16:16:35.173,0,0.9456429275274209,0.7374084390583692,0,0,0.7433633266800279,0.7190239451129393,0,0,0.8352296939864846,0.8460306793907035,0,0,0.7743642153660284,0.8148287215287863,0,0,0.5257301035502085,0.6553669479103057,0,748.6446886446887,794.1758241758242,799.0109890109891,802.6373626373627,354.5787545787546,-0.215698,0.075195,0.695679,-4.471130,0.829926,-5.936584,1,2,1,1,2,75.000000
2024-11-24 16:16:35.538,,,,,,,,,,,,,,,,,,,,,,,,,,,,,,,,,,,,,,/muse/elements/blink
2024-11-24 16:16:35.673,0,0.894648314437799,0.9059628072270224,0,0,0.7615536438626739,0.7549368448387255,0,0,0.6177282935778853,0.8438696557379377,0,0,0.7362891749347509,0.8518640551716474,0,0,0.4562424924464926,0.5741032860264679,0,840.5128205128206,793.3699633699634,804.2490842490843,874.3589743589744,879.1941391941392,-0.218445,0.115234,0.622681,7.940369,5.749664,6.041260,1,2,1,1,2,70.000000
2024-11-24 16:16:35.952,,,,,,,,,,,,,,,,,,,,,,,,,,,,,,,,,,,,,,/muse/elements/blink
2024-11-24 16:16:36.173,0,0.8771579251349482,0.8960205803077074,0,0,0.7009251581014461,0.7099853939237699,0,0,0.7670656510612091,0.8237850918704259,0,0,0.6519723495605666,0.8115670837777905,0,0,0.3680992114645162,0.4832173277602548,0,836.8864468864469,789.7435897435897,780.4761904761905,819.1575091575091,1086.300366300366,-0.189758,0.158142,0.685974,10.273132,-6.811371,-23.006134,1,2,1,1,2,70.000000
2024-11-24 16:16:36.232,,,,,,,,,,,,,,,,,,,,,,,,,,,,,,,,,,,,,,/muse/elements/blink
2024-11-24 16:16:36.575,,,,,,,,,,,,,,,,,,,,,,,,,,,,,,,,,,,,,,/muse/elements/blink
2024-11-24 16:16:36.677,0,0.6672244929041515,0.7237819617567027,0,0,0.6102985963196873,0.4437260449899407,0,0,0.762412092094262,0.7262832129969112,0,0,0.6036213727377289,0.793585470455504,0,0,0.3158101534297767,0.4599254677633596,0,805.8608058608058,807.4725274725275,785.7142857142858,827.2161172161173,475.0549450549451,-0.161987,0.178101,0.632812,20.628510,-4.336548,4.575806,1,2,1,1,2,70.000000
2024-11-24 16:16:37.181,0,0.4476456936965177,0.4072506389006497,0,0,0.5445073944002112,0.04643249850560344,0,0,0.7197493434742028,0.6664415201394411,0,0,0.5997056440998815,0.7536007580955042,0,0,0.2552709738351973,0.5620951566887115,0,667.6556776556777,795.7875457875458,816.7399267399268,821.1721611721612,1016.996336996337,-0.183655,0.197449,0.619690,-2.781372,-13.547974,-31.342773,1,2,1,1,2,70.000000
2024-11-24 16:16:37.673,0,0.587712695965788,0.5673909597858453,0,0,0.4240720101073096,0.05998175174299498,0,0,0.6808857511246978,0.6634784260455648,0,0,0.5377495810382019,0.7441783984883209,0,0,0.3590845379718455,0.5764406485855736,0,792.967032967033,801.8315018315019,801.4285714285714,831.6483516483516,953.7362637362637,-0.136597,0.115112,0.812500,4.628143,-15.798492,3.506622,1,2,1,1,2,70.000000
2024-11-24 16:16:37.702,,,,,,,,,,,,,,,,,,,,,,,,,,,,,,,,,,,,,,/muse/elements/blink
2024-11-24 16:16:37.869,,,,,,,,,,,,,,,,,,,,,,,,,,,,,,,,,,,,,,/muse/elements/blink
2024-11-24 16:16:38.072,,,,,,,,,,,,,,,,,,,,,,,,,,,,,,,,,,,,,,/muse/elements/blink
2024-11-24 16:16:38.173,0,0.9215799876801153,0.3104869205791521,0,0,0.6416811534054045,0.05200786534546462,0,0,0.617694563128478,0.1291098517715621,0,0,0.4533690811432383,0.6799560766377092,0,0,0.4175065834427276,0.6253792273002416,0,957.3626373626374,803.040293040293,796.5934065934066,853.4065934065934,1391.318681318681,-0.220947,0.134521,0.788574,11.768494,-6.773987,-28.553925,1,2,1,1,2,70.000000
2024-11-24 16:16:38.328,,,,,,,,,,,,,,,,,,,,,,,,,,,,,,,,,,,,,,/muse/elements/blink
2024-11-24 16:16:38.495,,,,,,,,,,,,,,,,,,,,,,,,,,,,,,,,,,,,,,/muse/elements/blink
2024-11-24 16:16:38.660,,,,,,,,,,,,,,,,,,,,,,,,,,,,,,,,,,,,,,/muse/elements/blink
2024-11-24 16:16:38.673,0,0.9215799876801153,0.3104869205791521,0,0,0.6416811534054045,0.05200786534546462,0,0,0.617694563128478,0.1291098517715621,0,0,0.4533690811432383,0.6799560766377092,0,0,0.4175065834427276,0.6253792273002416,0,383.992673992674,790.1465201465202,908.6080586080586,1031.501831501831,1141.098901098901,-0.267700,0.060974,0.853394,-18.041534,5.293579,14.041443,1,2,1,1,2,70.000000
2024-11-24 16:16:39.098,,,,,,,,,,,,,,,,,,,,,,,,,,,,,,,,,,,,,,/muse/elements/blink
2024-11-24 16:16:39.181,0,1.017223606401471,0.3104869205791521,0,0,0.7341599826554462,0.05200786534546462,0,0,0.4560627678111093,0.1291098517715621,0,0,0.4519179984342043,0.6799560766377092,0,0,0.4426673057898315,0.6253792273002416,0,940.8424908424909,800.6227106227107,800.6227106227107,815.1282051282052,1150.3663003663,-0.373413,0.180847,0.989014,-0.336456,3.536530,11.880646,1,2,1,1,2,70.000000
2024-11-24 16:16:39.284,,,,,,,,,,,,,,,,,,,,,,,,,,,,,,,,,,,,,,/muse/elements/blink
2024-11-24 16:16:39.690,0,1.061413239771226,0.3104869205791521,0,0,0.795093545926602,0.05200786534546462,0,0,0.4231021592864385,0.1291098517715621,0,0,0.4567678548565531,0.6799560766377092,0,0,0.4568546679541783,0.6253792273002416,0,938.8278388278388,807.0695970695971,810.6959706959707,918.6813186813187,1375.604395604396,-0.290466,0.117798,0.962463,7.828217,0.014954,0.478516,1,2,1,1,2,70.000000
2024-11-24 16:16:39.815,,,,,,,,,,,,,,,,,,,,,,,,,,,,,,,,,,,,,,/muse/elements/blink
2024-11-24 16:16:40.173,0,1.061413239771226,0.3104869205791521,0,0,0.795093545926602,0.05200786534546462,0,0,0.4231021592864385,0.1291098517715621,0,0,0.4567678548565531,0.6799560766377092,0,0,0.4568546679541783,0.6253792273002416,0,1042.783882783883,813.919413919414,770.8058608058608,733.3333333333334,1224.505494505495,-0.272339,0.159790,0.865295,0.029907,-8.688049,3.379517,1,2,1,1,2,70.000000
2024-11-24 16:16:40.416,,,,,,,,,,,,,,,,,,,,,,,,,,,,,,,,,,,,,,/muse/elements/blink
2024-11-24 16:16:40.629,,,,,,,,,,,,,,,,,,,,,,,,,,,,,,,,,,,,,,/muse/elements/blink
2024-11-24 16:16:40.673,0,1.183316564483202,0.6406247856128637,0,0,0.8637508213350248,0.3723492007723559,0,0,0.9583226028333978,0.3532306833467138,0,0,0.6669660073113263,0.6853686657091167,0,0,0.5534106133564115,0.6161519082976152,0,664.4322344322344,808.6813186813187,807.8754578754579,653.5531135531136,11.68498168498169,-0.382385,0.091064,0.980652,12.007751,-12.830200,-3.566437,1,2,1,1,2,70.000000
2024-11-24 16:16:40.819,,,,,,,,,,,,,,,,,,,,,,,,,,,,,,,,,,,,,,/muse/elements/blink
2024-11-24 16:16:41.173,0,1.194804466460427,0.6941835861915732,0,0,0.8512696445363844,0.3616843394834028,0,0,0.9583226028333978,0.4205445201999072,0,0,0.6441379978016455,0.6398800559575617,0,0,0.5337843189839023,0.5779857876738584,0,860.2564102564103,808.6813186813187,789.3406593406594,663.6263736263736,600.7692307692308,-0.533081,0.140869,1.177612,-0.807495,-7.835693,-10.489960,1,2,1,1,2,70.000000
2024-11-24 16:16:41.356,,,,,,,,,,,,,,,,,,,,,,,,,,,,,,,,,,,,,,/muse/elements/blink
2024-11-24 16:16:41.673,0,1.005488726500587,0.7348816315870504,0,0,0.6953659285324371,0.3634510209755731,0,0,0.8904288776402288,0.445025059583728,0,0,0.4226990941961377,0.5881997355100018,0,0,0.259748498889412,0.456718188045317,0,652.3443223443223,873.5531135531136,794.981684981685,639.4505494505495,705.1282051282052,-0.590393,0.119934,1.272766,9.435730,2.459869,-3.955231,1,2,1,1,2,70.000000
2024-11-24 16:16:41.865,,,,,,,,,,,,,,,,,,,,,,,,,,,,,,,,,,,,,,/muse/elements/blink
2024-11-24 16:16:42.173,0,0.9006800436566768,0.7458000299361907,0,0,0.5677114224618377,0.3916628605079495,0,0,0.7139377321671225,0.4411599083466967,0,0,0.2428401901927899,0.5692731922193615,0,0,-0.02863023149886098,0.4203648298908114,0,826.007326007326,761.1355311355312,778.0586080586081,898.5347985347986,365.4578754578754,-0.492615,0.242371,1.470520,7.880554,-2.138367,-7.880554,1,2,1,1,2,70.000000
2024-11-24 16:16:42.241,,,,,,,,,,,,,,,,,,,,,,,,,,,,,,,,,,,,,,/muse/elements/blink
2024-11-24 16:16:42.564,,,,,,,,,,,,,,,,,,,,,,,,,,,,,,,,,,,,,,/muse/elements/blink
2024-11-24 16:16:42.675,0,0.7665942520022171,0.7369792107715645,0,0,0.5191413308548014,0.4177830609412542,0,0,0.57856393292886,0.3740236515261186,0,0,0.1905082890187641,0.5707213737570374,0,0,-0.1797725314738492,0.3457176105909498,0,802.2344322344322,776.8498168498169,810.2930402930403,790.5494505494506,1080.25641025641,-0.297302,0.173828,0.945862,-3.947754,11.252594,5.936584,1,2,1,1,2,70.000000
2024-11-24 16:16:43.077,,,,,,,,,,,,,,,,,,,,,,,,,,,,,,,,,,,,,,/muse/elements/blink
2024-11-24 16:16:43.185,0,0.6953689647158336,0.7847990293044123,0,0,0.5365529695794509,0.5712712853399147,0,0,0.5630917855221084,0.2287352568160276,0,0,0.1378972313279136,0.6364039945073433,0,0,-0.1666172614743137,0.3870712990886913,0,799.8168498168499,812.7106227106227,794.5787545787546,818.3516483516484,928.7545787545788,-0.282654,0.108582,0.981262,-2.018738,-5.413208,12.523651,1,2,1,1,2,70.000000
2024-11-24 16:16:43.561,,,,,,,,,,,,,,,,,,,,,,,,,,,,,,,,,,,,,,/muse/elements/blink
2024-11-24 16:16:43.673,0,1.114215831329147,0.7847990293044123,0,0,0.9734997234297944,0.5712712853399147,0,0,0.4488638350051248,0.2287352568160276,0,0,0.4960625262285548,0.6364039945073433,0,0,0.3648168243321042,0.3870712990886913,0,681.3553113553114,810.6959706959707,848.5714285714286,690.6227106227107,904.981684981685,-0.371521,0.215088,1.022766,5.816956,1.345825,-4.478607,1,2,1,1,2,70.000000
