TimeStamp,Delta_TP9,Delta_AF7,Delta_AF8,Delta_TP10,Theta_TP9,Theta_AF7,Theta_AF8,Theta_TP10,Alpha_TP9,Alpha_AF7,Alpha_AF8,Alpha_TP10,Beta_TP9,Beta_AF7,Beta_AF8,Beta_TP10,Gamma_TP9,Gamma_AF7,Gamma_AF8,Gamma_TP10,RAW_TP9,RAW_AF7,RAW_AF8,RAW_TP10,AUX_RIGHT,Accelerometer_X,Accelerometer_Y,Accelerometer_Z,Gyro_X,Gyro_Y,Gyro_Z,HeadBandOn,HSI_TP9,HSI_AF7,HSI_AF8,HSI_TP10,Battery,Elements
2024-12-17 14:08:09.897,,,,,,,,,,,,,,,,,,,,,,,,,,,,,,,,,,,,,,/muse/event/connected Muse-D2D3
2024-12-17 14:08:09.958,,,,,,,,,,,,,,,,,,,,,,,,,,,,,,,,,,,,,,/muse/elements/blink
2024-12-17 14:08:09.972,,,,,,,,,,,,,,,,,,,,,,,,,,,,,,,,,,,,,,/muse/elements/blink
2024-12-17 14:08:09.984,,,,,,,,,,,,,,,,,,,,,,,,,,,,,,,,,,,,,,/muse/elements/blink
2024-12-17 14:08:10.407,1.624865662423162,0.1892229348957395,0.6888802063515729,0.3188039862864205,2.040942500089266,0.04733354681976796,0.2718227285767044,0.3613209352318026,1.657931290826814,0.4852976950580377,0.1171755333141991,0.5673653818096529,1.433875651939806,1.099399118168934,0.1843325205337614,1.002071256960444,0.9208714964409284,1.171400525622593,0.1230453512796036,0.8995956717911301,814.3223443223443,804.2490842490843,805.0549450549451,875.9706959706959,640.6593406593407,-0.199402,0.059875,0.967773,-2.138367,-0.889740,0.014954,1,2,1,1,2,45.000000
2024-12-17 14:08:10.814,,,,,,,,,,,,,,,,,,,,,,,,,,,,,,,,,,,,,,/muse/elements/blink
2024-12-17 14:08:10.898,1.624865662423162,0.2397673401832851,0.7936359815880022,0.3188039862864205,2.040942500089266,0.09576894672562997,0.4928187321322217,0.3613209352318026,1.657931290826814,0.5554386943970196,0.1073508100569964,0.5673653818096529,1.433875651939806,1.102511730720522,0.2172363776221677,1.002071256960444,0.9208714964409284,1.138046685869683,0.1390841267974139,0.8995956717911301,805.4578754578755,791.7582417582418,799.0109890109891,829.6336996336996,775.6410256410256,-0.260559,0.054382,0.976257,3.215027,-5.203857,2.093506,1,2,1,1,2,45.000000
2024-12-17 14:08:11.398,1.624865662423162,0.2693480789452567,0.9596123360939024,0.3188039862864205,2.040942500089266,0.1974290772731254,0.647252547912444,0.3613209352318026,1.657931290826814,0.6006769066073387,0.3863594892266708,0.5673653818096529,1.433875651939806,1.092616392800965,0.2876899053743391,1.002071256960444,0.9208714964409284,1.061228439446196,0.1559823587217651,0.8995956717911301,811.9047619047619,808.2783882783883,797.8021978021978,801.8315018315019,732.9304029304029,-0.237427,0.059692,0.985657,1.121521,-1.293488,-0.800018,1,2,1,1,2,45.000000
2024-12-17 14:08:11.901,1.624865662423162,0.1266189538288508,0.844630316296111,0.3188039862864205,2.040942500089266,0.1312307414991261,0.5998174067204352,0.3613209352318026,1.657931290826814,0.5908830755609104,0.3863594892266708,0.5673653818096529,1.433875651939806,1.102356672656146,0.2983668046647419,1.002071256960444,0.9208714964409284,0.8674473566034464,0.1725252670231107,0.8995956717911301,759.92673992674,799.8168498168499,799.0109890109891,814.7252747252747,778.4615384615385,-0.249512,0.062073,0.981201,2.280426,-5.248718,1.061707,1,2,1,1,2,45.000000
2024-12-17 14:08:12.381,,,,,,,,,,,,,,,,,,,,,,,,,,,,,,,,,,,,,,/muse/elements/blink
2024-12-17 14:08:12.398,1.624865662423162,0.1142207678547199,0.7891819221233447,0.3188039862864205,2.040942500089266,0.2634585936934409,0.4465693402547136,0.3613209352318026,1.657931290826814,0.6354166427581198,0.3912714278425124,0.5673653818096529,1.433875651939806,1.135295213100236,0.3131085987571789,1.002071256960444,0.9208714964409284,0.8883806624101567,0.1422941819643534,0.8995956717911301,725.6776556776557,813.5164835164835,770,742.6007326007326,726.0805860805862,-0.199463,0.067993,0.989807,2.818756,-2.729034,2.743988,1,2,1,1,2,45.000000
2024-12-17 14:08:12.549,,,,,,,,,,,,,,,,,,,,,,,,,,,,,,,,,,,,,,/muse/elements/blink
2024-12-17 14:08:12.898,1.624865662423162,0.5530608005565771,0.6143671740500043,0.3188039862864205,2.040942500089266,0.5154836452262068,0.2367316588489026,0.3613209352318026,1.657931290826814,0.8042052974247639,0.391441188310887,0.5673653818096529,1.433875651939806,1.077631740263626,0.2579826790476481,1.002071256960444,0.9208714964409284,0.89090629033459,0.1580874870692515,0.8995956717911301,830.8424908424909,842.9304029304029,780.4761904761905,776.8498168498169,782.0879120879121,-0.205627,0.043701,0.985229,1.338348,-7.693634,3.222504,1,2,1,1,2,45.000000
2024-12-17 14:08:13.398,1.624865662423162,0.7090573027993845,0.6484501762746274,0.3188039862864205,2.040942500089266,0.6227866906337263,0.2959398762268448,0.3613209352318026,1.657931290826814,0.7962024070755338,0.391441188310887,0.5673653818096529,1.433875651939806,1.070824212551232,0.3343950982356245,1.002071256960444,0.9208714964409284,0.9246205657457084,0.172725666594415,0.8995956717911301,801.8315018315019,788.9377289377289,809.0842490842491,842.5274725274726,819.1575091575091,-0.139648,0.064514,1.005066,6.542206,-2.295380,-0.089722,1,2,1,1,2,50.000000
2024-12-17 14:08:13.857,,,,,,,,,,,,,,,,,,,,,,,,,,,,,,,,,,,,,,/muse/elements/blink
2024-12-17 14:08:13.898,1.624865662423162,0.7443704314476738,0.5531607258727189,0.3188039862864205,2.040942500089266,0.585855030809338,0.2270963191541404,0.3613209352318026,1.657931290826814,0.7872890772199365,0.4130431386534603,0.5673653818096529,1.433875651939806,1.011200974058231,0.4147531722506105,1.002071256960444,0.9208714964409284,0.938105983178846,0.2973671196570261,0.8995956717911301,681.3553113553114,817.1428571428571,780.4761904761905,738.1684981684982,741.7948717948718,-0.454285,0.038391,0.886353,6.452484,9.144135,6.145935,1,2,1,1,2,50.000000
2024-12-17 14:08:14.095,,,,,,,,,,,,,,,,,,,,,,,,,,,,,,,,,,,,,,/muse/elements/blink
2024-12-17 14:08:14.306,,,,,,,,,,,,,,,,,,,,,,,,,,,,,,,,,,,,,,/muse/elements/blink
2024-12-17 14:08:14.398,1.624865662423162,0.3613877346552064,0.5728755103260652,0.3188039862864205,2.040942500089266,0.1601400635479803,0.3633063309274199,0.3613209352318026,1.657931290826814,0.6605377234034635,0.3935713989154819,0.5673653818096529,1.433875651939806,0.9406688297223876,0.4706037322237916,1.002071256960444,0.9208714964409284,0.9501459666181785,0.2355493245485029,0.8995956717911301,605.2014652014652,815.5311355311355,831.2454212454213,730.5128205128206,732.5274725274726,-0.262390,0.137390,0.949585,6.175842,-12.404022,-9.428253,1,2,1,1,2,50.000000
2024-12-17 14:08:14.611,,,,,,,,,,,,,,,,,,,,,,,,,,,,,,,,,,,,,,/muse/elements/blink
2024-12-17 14:08:14.889,,,,,,,,,,,,,,,,,,,,,,,,,,,,,,,,,,,,,,/muse/elements/blink
2024-12-17 14:08:14.898,1.624865662423162,0.03161476223467938,0.6670019275480927,0.3188039862864205,2.040942500089266,-0.005139852401017205,0.4626541513803118,0.3613209352318026,1.657931290826814,0.4767804259602088,0.3890249979200577,0.5673653818096529,1.433875651939806,0.9262452035720237,0.4486767701799555,1.002071256960444,0.9208714964409284,0.8641074918739556,0.2148924060664705,0.8995956717911301,1065.750915750916,820.7692307692308,773.2234432234433,886.4468864468864,1019.010989010989,-0.277588,0.050171,1.109558,-2.729034,10.295563,6.766510,1,2,1,1,2,50.000000
2024-12-17 14:08:14.982,,,,,,,,,,,,,,,,,,,,,,,,,,,,,,,,,,,,,,/muse/elements/jaw_clench
2024-12-17 14:08:15.221,,,,,,,,,,,,,,,,,,,,,,,,,,,,,,,,,,,,,,/muse/elements/blink
2024-12-17 14:08:15.398,1.624865662423162,-0.2097299542524811,0.8706444726790042,0.3188039862864205,2.040942500089266,-0.06380402069294741,0.678363882213124,0.3613209352318026,1.657931290826814,0.4767804259602088,0.3889430078940659,0.5673653818096529,1.433875651939806,0.7930227975561871,0.4997674604892831,1.002071256960444,0.9208714964409284,0.7324750957171783,0.064803085367111,0.8995956717911301,399.3040293040293,796.1904761904763,764.7619047619048,940.8424908424909,1373.186813186813,-0.158020,0.213806,1.131653,-10.512390,-8.314209,-6.751556,1,2,1,1,2,50.000000
2024-12-17 14:08:15.501,,,,,,,,,,,,,,,,,,,,,,,,,,,,,,,,,,,,,,/muse/elements/blink
2024-12-17 14:08:15.903,1.624865662423162,-0.2097299542524811,0.8706444726790042,0.3188039862864205,2.040942500089266,-0.06380402069294741,0.678363882213124,0.3613209352318026,1.657931290826814,0.4767804259602088,0.3889430078940659,0.5673653818096529,1.433875651939806,0.7930227975561871,0.4997674604892831,1.002071256960444,0.9208714964409284,0.7324750957171783,0.064803085367111,0.8995956717911301,808.2783882783883,770.4029304029305,820.7692307692308,856.2271062271062,811.5018315018315,-0.211914,0.113708,1.138000,2.123413,3.671112,5.144043,1,4,1,1,2,50.000000
2024-12-17 14:08:16.226,,,,,,,,,,,,,,,,,,,,,,,,,,,,,,,,,,,,,,/muse/elements/blink
2024-12-17 14:08:16.405,1.624865662423162,-0.2097299542524811,0.8706444726790042,0.3188039862864205,2.040942500089266,-0.06380402069294741,0.678363882213124,0.3613209352318026,1.657931290826814,0.4767804259602088,0.3889430078940659,0.5673653818096529,1.433875651939806,0.7930227975561871,0.4997674604892831,1.002071256960444,0.9208714964409284,0.7324750957171783,0.064803085367111,0.8995956717911301,817.948717948718,788.5347985347986,805.4578754578755,816.3369963369963,706.3369963369963,-0.260193,0.064209,0.983459,3.798218,3.813171,-9.869385,1,4,1,1,2,50.000000
2024-12-17 14:08:16.627,,,,,,,,,,,,,,,,,,,,,,,,,,,,,,,,,,,,,,/muse/elements/blink
2024-12-17 14:08:16.816,,,,,,,,,,,,,,,,,,,,,,,,,,,,,,,,,,,,,,/muse/elements/blink
2024-12-17 14:08:16.898,1.624865662423162,-0.2097299542524811,0.9740482605225987,0.3188039862864205,2.040942500089266,-0.06380402069294741,1.132557863767193,0.3613209352318026,1.657931290826814,0.4767804259602088,1.006519530416544,0.5673653818096529,1.433875651939806,0.7930227975561871,0.8215409894020426,1.002071256960444,0.9208714964409284,0.7324750957171783,0.683992364467345,0.8995956717911301,817.1428571428571,788.9377289377289,790.5494505494506,813.5164835164835,393.6630036630037,-0.189148,0.072083,0.791809,0.082245,0.299072,-3.813171,1,4,1,1,2,50.000000
2024-12-17 14:08:17.234,,,,,,,,,,,,,,,,,,,,,,,,,,,,,,,,,,,,,,/muse/elements/blink
2024-12-17 14:08:17.398,1.624865662423162,-0.2097299542524811,0.9740482605225987,0.3188039862864205,2.040942500089266,-0.06380402069294741,1.132557863767193,0.3613209352318026,1.657931290826814,0.4767804259602088,1.006519530416544,0.5673653818096529,1.433875651939806,0.7930227975561871,0.8215409894020426,1.002071256960444,0.9208714964409284,0.7324750957171783,0.683992364467345,0.8995956717911301,804.2490842490843,783.6996336996338,795.7875457875458,849.7802197802198,909.8168498168499,-0.252869,0.061951,0.754700,-0.067291,-10.407715,16.329346,1,2,1,1,2,50.000000
2024-12-17 14:08:17.899,1.624865662423162,-0.2097299542524811,1.014960499624776,0.3188039862864205,2.040942500089266,-0.06380402069294741,1.184002602440472,0.3613209352318026,1.657931290826814,0.4767804259602088,0.9916597423123045,0.5673653818096529,1.433875651939806,0.7930227975561871,0.8169705116492992,1.002071256960444,0.9208714964409284,0.7324750957171783,0.5765595527676836,0.8995956717911301,699.0842490842491,815.1282051282052,796.1904761904763,796.5934065934066,836.4835164835165,-0.213257,0.124146,0.747253,6.407623,-20.105133,-0.366364,1,4,1,1,2,50.000000
2024-12-17 14:08:18.358,,,,,,,,,,,,,,,,,,,,,,,,,,,,,,,,,,,,,,/muse/elements/blink
2024-12-17 14:08:18.398,1.624865662423162,-0.2097299542524811,0.9719596389684529,0.3188039862864205,2.040942500089266,-0.06380402069294741,1.157425129590287,0.3613209352318026,1.657931290826814,0.4767804259602088,0.9695739331874228,0.5673653818096529,1.433875651939806,0.7930227975561871,0.7861066331790925,1.002071256960444,0.9208714964409284,0.7324750957171783,0.5542782369377992,0.8995956717911301,932.3809523809524,805.4578754578755,784.9084249084249,852.1978021978023,749.047619047619,-0.324341,-0.002502,0.924194,2.856140,-6.990814,0.628052,1,4,1,1,2,50.000000
2024-12-17 14:08:18.898,1.624865662423162,-0.2097299542524811,0.9719596389684529,0.3188039862864205,2.040942500089266,-0.06380402069294741,1.157425129590287,0.3613209352318026,1.657931290826814,0.4767804259602088,0.9695739331874228,0.5673653818096529,1.433875651939806,0.7930227975561871,0.7861066331790925,1.002071256960444,0.9208714964409284,0.7324750957171783,0.5542782369377992,0.8995956717911301,563.2967032967033,810.2930402930403,791.3553113553114,805.0549450549451,942.4542124542124,-0.235596,0.090088,0.959412,7.110443,-10.243225,-5.330963,1,2,1,1,2,50.000000
2024-12-17 14:08:19.181,,,,,,,,,,,,,,,,,,,,,,,,,,,,,,,,,,,,,,/muse/elements/blink
2024-12-17 14:08:19.405,1.624865662423162,-0.2097299542524811,0.9719596389684529,0.3188039862864205,2.040942500089266,-0.06380402069294741,1.157425129590287,0.3613209352318026,1.657931290826814,0.4767804259602088,0.9695739331874228,0.5673653818096529,1.433875651939806,0.7930227975561871,0.7861066331790925,1.002071256960444,0.9208714964409284,0.7324750957171783,0.5542782369377992,0.8995956717911301,915.4578754578755,809.0842490842491,794.5787545787546,839.7069597069598,752.2710622710623,-0.315186,0.012390,0.938293,4.919739,8.964691,1.921539,1,4,1,1,2,50.000000
2024-12-17 14:08:19.900,1.624865662423162,-0.2097299542524811,1.151029655136004,0.3188039862864205,2.040942500089266,-0.06380402069294741,1.012545140019973,0.3613209352318026,1.657931290826814,0.4767804259602088,0.6209226395930177,0.5673653818096529,1.433875651939806,0.7930227975561871,0.0713004439111828,1.002071256960444,0.9208714964409284,0.7324750957171783,0.03230524434359534,0.8995956717911301,797.3992673992674,821.5750915750916,796.996336996337,790.1465201465202,747.4358974358975,-0.300903,0.125793,1.193359,4.934692,0.254211,-9.547882,1,2,1,1,2,50.000000
2024-12-17 14:08:20.404,1.624865662423162,-0.2097299542524811,1.071827382498248,0.3188039862864205,2.040942500089266,-0.06380402069294741,0.826174826030761,0.3613209352318026,1.657931290826814,0.4767804259602088,0.6257563549645381,0.5673653818096529,1.433875651939806,0.7930227975561871,0.1677011026094556,1.002071256960444,0.9208714964409284,0.7324750957171783,0.03061644758595851,0.8995956717911301,868.3150183150184,811.5018315018315,787.3260073260074,849.7802197802198,850.1831501831502,-0.360474,0.087891,1.114746,1.517792,13.480682,3.155212,1,4,1,1,2,50.000000
2024-12-17 14:08:20.906,1.624865662423162,-0.2097299542524811,1.035404548357872,0.3188039862864205,2.040942500089266,-0.06380402069294741,0.7503453348088683,0.3613209352318026,1.657931290826814,0.4767804259602088,0.6347363257663029,0.5673653818096529,1.433875651939806,0.7930227975561871,0.2165298603442392,1.002071256960444,0.9208714964409284,0.7324750957171783,0.08020768146832255,0.8995956717911301,663.6263736263736,768.7912087912088,811.9047619047619,788.9377289377289,571.7582417582418,-0.276672,0.031494,0.822632,5.428162,1.809387,3.379517,1,2,1,1,2,50.000000
2024-12-17 14:08:21.398,1.624865662423162,-0.2097299542524811,0.9703364553961993,0.3188039862864205,2.040942500089266,-0.06380402069294741,0.5621137087595954,0.3613209352318026,1.657931290826814,0.4767804259602088,0.8202550612052562,0.5673653818096529,1.433875651939806,0.7930227975561871,0.2322276615589996,1.002071256960444,0.9208714964409284,0.7324750957171783,0.08458483135674384,0.8995956717911301,828.8278388278388,785.3113553113553,804.6520146520147,784.5054945054945,564.9084249084249,-0.198242,0.035095,0.731506,0.171967,-6.198273,-8.269348,1,2,1,1,2,50.000000
2024-12-17 14:08:21.418,,,,,,,,,,,,,,,,,,,,,,,,,,,,,,,,,,,,,,/muse/elements/blink
2024-12-17 14:08:21.901,1.624865662423162,-0.2097299542524811,0.9961498455417895,0.3188039862864205,2.040942500089266,-0.06380402069294741,0.8039325950392575,0.3613209352318026,1.657931290826814,0.4767804259602088,0.8202550612052562,0.5673653818096529,1.433875651939806,0.7930227975561871,0.2379430500602152,1.002071256960444,0.9208714964409284,0.7324750957171783,0.1839960688700572,0.8995956717911301,680.952380952381,774.8351648351648,805.0549450549451,788.5347985347986,786.9230769230769,-0.242615,0.028076,0.693726,6.848755,-9.188995,6.744080,1,2,1,1,2,50.000000
2024-12-17 14:08:22.221,,,,,,,,,,,,,,,,,,,,,,,,,,,,,,,,,,,,,,/muse/elements/blink
2024-12-17 14:08:22.398,1.624865662423162,-0.2097299542524811,0.8999100890787972,0.3188039862864205,2.040942500089266,-0.06380402069294741,0.770594808887674,0.3613209352318026,1.657931290826814,0.4767804259602088,0.8202550612052562,0.5673653818096529,1.433875651939806,0.7930227975561871,0.2627056647128959,1.002071256960444,0.9208714964409284,0.7324750957171783,0.1944966046335877,0.8995956717911301,612.0512820512821,787.7289377289378,780.0732600732601,819.96336996337,759.1208791208792,-0.204590,0.075134,0.829407,4.134674,-12.613373,-2.175751,1,2,1,1,2,50.000000
2024-12-17 14:08:22.901,1.624865662423162,-0.2097299542524811,0.8517614942691849,0.3188039862864205,2.040942500089266,-0.06380402069294741,0.7532768419579799,0.3613209352318026,1.657931290826814,0.4767804259602088,0.4659908979238399,0.5673653818096529,1.433875651939806,0.7930227975561871,0.3892665976963772,1.002071256960444,0.9208714964409284,0.7324750957171783,0.2488361187244655,0.8995956717911301,868.3150183150184,763.956043956044,794.981684981685,821.1721611721612,718.021978021978,-0.210510,0.020569,0.757874,3.633728,-17.959290,9.413300,1,2,1,1,2,50.000000
2024-12-17 14:08:22.914,,,,,,,,,,,,,,,,,,,,,,,,,,,,,,,,,,,,,,/muse/elements/blink
2024-12-17 14:08:23.398,1.624865662423162,-0.2097299542524811,0.8598159100727677,0.3188039862864205,2.040942500089266,-0.06380402069294741,0.6397297626777981,0.3613209352318026,1.657931290826814,0.4767804259602088,0.3262252682444147,0.5673653818096529,1.433875651939806,0.7930227975561871,0.4493382159118598,1.002071256960444,0.9208714964409284,0.7324750957171783,0.1782842795798295,0.8995956717911301,250.6227106227106,773.2234432234433,784.1025641025641,765.5677655677656,1025.860805860806,-0.358276,0.107849,0.978577,4.994507,-5.016937,-0.844879,1,2,1,1,2,50.000000
2024-12-17 14:08:23.528,,,,,,,,,,,,,,,,,,,,,,,,,,,,,,,,,,,,,,/muse/elements/blink
2024-12-17 14:08:23.858,,,,,,,,,,,,,,,,,,,,,,,,,,,,,,,,,,,,,,/muse/elements/blink
2024-12-17 14:08:23.898,1.624865662423162,-0.2097299542524811,0.9711935807083715,0.3188039862864205,2.040942500089266,-0.06380402069294741,0.8144718672759302,0.3613209352318026,1.657931290826814,0.4767804259602088,0.3267886721924169,0.5673653818096529,1.433875651939806,0.7930227975561871,0.4501928067781033,1.002071256960444,0.9208714964409284,0.7324750957171783,0.1196101402033668,0.8995956717911301,1171.318681318681,788.5347985347986,796.5934065934066,803.040293040293,622.1245421245421,-0.414612,0.075745,1.173523,6.145935,-2.773895,-3.596344,1,2,1,1,2,50.000000
2024-12-17 14:08:24.398,1.624865662423162,-0.2097299542524811,0.9532392623141052,0.3188039862864205,2.040942500089266,-0.06380402069294741,0.8602366918322464,0.3613209352318026,1.657931290826814,0.4767804259602088,0.1833173127442184,0.5673653818096529,1.433875651939806,0.7930227975561871,0.3526019470452549,1.002071256960444,0.9208714964409284,0.7324750957171783,0.06965848814501702,0.8995956717911301,1239.81684981685,817.5457875457876,795.7875457875458,840.1098901098901,706.3369963369963,-0.260559,0.130554,0.889038,-0.493469,-4.059906,-3.072968,1,2,1,1,2,50.000000
2024-12-17 14:08:24.899,1.624865662423162,-0.2097299542524811,0.9426185724761422,0.3188039862864205,2.040942500089266,-0.06380402069294741,0.8878524446809277,0.3613209352318026,1.657931290826814,0.4767804259602088,0.1535242324962601,0.5673653818096529,1.433875651939806,0.7930227975561871,0.3569169225221254,1.002071256960444,0.9208714964409284,0.7324750957171783,0.03326597315881474,0.8995956717911301,656.7765567765568,815.1282051282052,796.1904761904763,812.3076923076924,813.919413919414,-0.361328,0.107178,1.251892,3.910370,-0.418701,15.394745,1,2,1,1,2,50.000000
2024-12-17 14:08:25.398,1.624865662423162,1.003099150124467,0.6494234552855144,0.3188039862864205,2.040942500089266,0.514637964485598,0.2452656194162006,0.3613209352318026,1.657931290826814,0.5403172742304867,0.4264203769497703,0.5673653818096529,1.433875651939806,1.020757666554264,0.08498269582470104,1.002071256960444,0.9208714964409284,0.9405789781020588,0.02539962316062567,0.8995956717911301,821.1721611721612,778.4615384615385,789.3406593406594,865.0915750915751,700.2930402930403,-0.223022,0.085632,1.193909,0.044861,-4.590759,1.704712,1,2,1,1,2,50.000000
2024-12-17 14:08:25.452,,,,,,,,,,,,,,,,,,,,,,,,,,,,,,,,,,,,,,/muse/elements/blink
2024-12-17 14:08:25.898,1.624865662423162,1.003099150124467,0.8397412334828863,0.3188039862864205,2.040942500089266,0.514637964485598,0.4191443789971684,0.3613209352318026,1.657931290826814,0.5403172742304867,0.431199390022258,0.5673653818096529,1.433875651939806,1.020757666554264,0.2248407433652353,1.002071256960444,0.9208714964409284,0.9405789781020588,0.1063203338902039,0.8995956717911301,850.5860805860806,810.6959706959707,797.3992673992674,799.8168498168499,701.9047619047619,-0.104248,0.118347,1.066711,5.166473,4.949646,2.160797,1,2,1,1,2,50.000000
2024-12-17 14:08:26.193,,,,,,,,,,,,,,,,,,,,,,,,,,,,,,,,,,,,,,/muse/elements/blink
2024-12-17 14:08:26.398,1.624865662423162,1.003099150124467,0.7906897290782678,0.3188039862864205,2.040942500089266,0.514637964485598,0.3720117070353299,0.3613209352318026,1.657931290826814,0.5403172742304867,0.431199390022258,0.5673653818096529,1.433875651939806,1.020757666554264,0.3503219443534669,1.002071256960444,0.9208714964409284,0.9405789781020588,0.1136423860068091,0.8995956717911301,809.8901098901099,801.4285714285714,792.967032967033,807.4725274725275,740.1831501831502,-0.180786,0.041504,0.758972,0.254211,7.768402,4.254303,1,2,1,1,2,50.000000
2024-12-17 14:08:26.476,,,,,,,,,,,,,,,,,,,,,,,,,,,,,,,,,,,,,,/muse/elements/blink
2024-12-17 14:08:26.913,1.624865662423162,1.023290322376014,0.8427932328152506,0.3188039862864205,2.040942500089266,0.5331730708982337,0.4011564264020397,0.3613209352318026,1.657931290826814,0.4577965212527769,0.3341738443984105,0.5673653818096529,1.433875651939806,1.033346235733761,0.3594079272211043,1.002071256960444,0.9208714964409284,0.9444785852887034,0.05059365540143235,0.8995956717911301,813.5164835164835,802.2344322344322,816.7399267399268,803.040293040293,579.0109890109891,-0.231812,0.070618,0.770813,5.263672,7.020721,-10.617065,1,4,1,1,2,50.000000
2024-12-17 14:08:27.202,,,,,,,,,,,,,,,,,,,,,,,,,,,,,,,,,,,,,,/muse/elements/blink
2024-12-17 14:08:27.398,1.624865662423162,1.023290322376014,0.7279565738978148,0.3188039862864205,2.040942500089266,0.5331730708982337,0.3292888779343316,0.3613209352318026,1.657931290826814,0.4577965212527769,0.3093073986154096,0.5673653818096529,1.433875651939806,1.033346235733761,0.3792939681622322,1.002071256960444,0.9208714964409284,0.9444785852887034,-0.001361817493980608,0.8995956717911301,778.0586080586081,801.8315018315019,792.1611721611722,791.3553113553114,801.025641025641,-0.243958,0.014465,0.727539,0.478516,-15.813446,5.831909,1,4,1,1,2,50.000000
2024-12-17 14:08:27.781,,,,,,,,,,,,,,,,,,,,,,,,,,,,,,,,,,,,,,/muse/elements/blink
2024-12-17 14:08:27.898,1.624865662423162,1.023290322376014,0.7558097397664256,0.3188039862864205,2.040942500089266,0.5331730708982337,0.3263806941826245,0.3613209352318026,1.657931290826814,0.4577965212527769,0.09467087580951086,0.5673653818096529,1.433875651939806,1.033346235733761,0.1725109824234331,1.002071256960444,0.9208714964409284,0.9444785852887034,-0.1841726902272693,0.8995956717911301,1142.710622710623,811.5018315018315,803.040293040293,790.1465201465202,881.2087912087912,-0.327393,0.113220,0.930176,-1.577606,7.454376,-6.886139,1,2,1,1,2,50.000000
2024-12-17 14:08:28.161,,,,,,,,,,,,,,,,,,,,,,,,,,,,,,,,,,,,,,/muse/elements/blink
2024-12-17 14:08:28.398,1.624865662423162,1.023290322376014,0.53513444805122,0.3188039862864205,2.040942500089266,0.5331730708982337,0.3309635338754964,0.3613209352318026,1.657931290826814,0.4577965212527769,-0.0770491183078041,0.5673653818096529,1.433875651939806,1.033346235733761,0.07581968522448226,1.002071256960444,0.9208714964409284,0.9444785852887034,-0.2035602470753764,0.8995956717911301,1065.750915750916,818.7545787545788,796.1904761904763,801.025641025641,679.7435897435897,-0.355347,-0.054443,0.921265,-8.097382,-0.478516,-1.106567,1,4,1,1,2,50.000000
2024-12-17 14:08:28.898,1.624865662423162,1.023290322376014,1.045269850165184,0.3188039862864205,2.040942500089266,0.5331730708982337,0.7729940124178115,0.3613209352318026,1.657931290826814,0.4577965212527769,0.577242724393211,0.5673653818096529,1.433875651939806,1.033346235733761,0.2279763803047048,1.002071256960444,0.9208714964409284,0.9444785852887034,0.05200398900474155,0.8995956717911301,1019.81684981685,843.3333333333334,801.025641025641,844.9450549450549,774.4322344322345,-0.675964,0.109009,1.839539,-0.418701,6.706696,-10.235748,1,2,1,1,2,50.000000
2024-12-17 14:08:29.172,,,,,,,,,,,,,,,,,,,,,,,,,,,,,,,,,,,,,,/muse/elements/blink
2024-12-17 14:08:29.402,1.624865662423162,1.023290322376014,0.985129817805888,0.3188039862864205,2.040942500089266,0.5331730708982337,0.7017666182880555,0.3613209352318026,1.657931290826814,0.4577965212527769,0.7809196172383309,0.5673653818096529,1.433875651939806,1.033346235733761,0.2754441279617217,1.002071256960444,0.9208714964409284,0.9444785852887034,0.0158313441142735,0.8995956717911301,689.8168498168499,805.0549450549451,794.981684981685,829.2307692307693,917.4725274725275,-0.378662,0.021118,0.945129,-2.415009,1.286011,2.676697,1,4,1,1,2,50.000000
2024-12-17 14:08:29.898,1.624865662423162,1.023290322376014,1.020213551805961,0.3188039862864205,2.040942500089266,0.5331730708982337,0.6897040292207471,0.3613209352318026,1.657931290826814,0.4577965212527769,0.7811012839137382,0.5673653818096529,1.433875651939806,1.033346235733761,0.2615924772826315,1.002071256960444,0.9208714964409284,0.9444785852887034,0.007140369610140768,0.8995956717911301,889.2673992673992,818.3516483516484,787.7289377289378,831.6483516483516,688.6080586080586,-0.265930,0.124695,1.206360,-7.902985,9.510498,-3.110352,1,2,1,1,2,50.000000
2024-12-17 14:08:30.191,,,,,,,,,,,,,,,,,,,,,,,,,,,,,,,,,,,,,,/muse/elements/blink
2024-12-17 14:08:30.398,1.624865662423162,1.023290322376014,0.9857796223521043,0.3188039862864205,2.040942500089266,0.5331730708982337,0.5323757577818475,0.3613209352318026,1.657931290826814,0.4577965212527769,0.7743932772092952,0.5673653818096529,1.433875651939806,1.033346235733761,0.1869244048466485,1.002071256960444,0.9208714964409284,0.9444785852887034,-0.1237372157332862,0.8995956717911301,911.4285714285714,825.2014652014652,798.2051282051282,836.8864468864469,981.941391941392,-0.379944,0.068054,1.564331,9.054413,7.491760,7.611389,1,4,1,1,2,50.000000
2024-12-17 14:08:30.851,,,,,,,,,,,,,,,,,,,,,,,,,,,,,,,,,,,,,,/muse/elements/blink
2024-12-17 14:08:30.898,1.624865662423162,1.023290322376014,0.9628886908059902,0.3188039862864205,2.040942500089266,0.5331730708982337,0.5241375900230554,0.3613209352318026,1.657931290826814,0.4577965212527769,0.7697431500946312,0.5673653818096529,1.433875651939806,1.033346235733761,0.1522653288358385,1.002071256960444,0.9208714964409284,0.9444785852887034,-0.1692817287138222,0.8995956717911301,793.3699633699634,787.3260073260074,791.3553113553114,822.7838827838829,866.3003663003664,-0.329895,0.032532,0.899231,6.093597,2.392578,-2.287903,1,2,1,1,2,50.000000
2024-12-17 14:08:31.408,1.624865662423162,1.023290322376014,0.9186045138664147,0.3188039862864205,2.040942500089266,0.5331730708982337,0.5745371984565762,0.3613209352318026,1.657931290826814,0.4577965212527769,0.5839757601037747,0.5673653818096529,1.433875651939806,1.033346235733761,0.121236622304398,1.002071256960444,0.9208714964409284,0.9444785852887034,-0.2607707826932281,0.8995956717911301,856.2271062271062,819.5604395604396,799.8168498168499,786.1172161172161,677.3260073260074,-0.200989,0.111328,0.802612,-0.142059,-9.517975,-0.157013,1,4,1,1,2,50.000000
2024-12-17 14:08:31.898,1.624865662423162,1.023290322376014,0.8584468794451984,0.3188039862864205,2.040942500089266,0.5331730708982337,0.6432047828174642,0.3613209352318026,1.657931290826814,0.4577965212527769,0.5721932935418866,0.5673653818096529,1.433875651939806,1.033346235733761,0.2258599932539514,1.002071256960444,0.9208714964409284,0.9444785852887034,-0.1978472230188534,0.8995956717911301,696.2637362637363,807.0695970695971,811.0989010989011,758.3150183150184,670.0732600732601,-0.094360,0.078491,0.731323,6.093597,-13.002167,-0.986938,1,2,1,1,2,50.000000
2024-12-17 14:08:32.398,1.624865662423162,1.023290322376014,0.8891357092020208,0.3188039862864205,2.040942500089266,0.5331730708982337,0.5294193423369733,0.3613209352318026,1.657931290826814,0.4577965212527769,0.5531910154896972,0.5673653818096529,1.433875651939806,1.033346235733761,0.2845037993464444,1.002071256960444,0.9208714964409284,0.9444785852887034,-0.09481239406050147,0.8995956717911301,904.981684981685,784.5054945054945,790.952380952381,792.5641025641025,930.3663003663004,-0.035828,0.082092,0.808533,-1.136475,0.575714,-3.745880,1,4,1,1,2,50.000000
2024-12-17 14:08:32.911,1.624865662423162,1.023290322376014,0.6306823965418874,0.3188039862864205,2.040942500089266,0.5331730708982337,0.0796844774650395,0.3613209352318026,1.657931290826814,0.4577965212527769,0.3306430305086411,0.5673653818096529,1.433875651939806,1.033346235733761,0.2507218660633602,1.002071256960444,0.9208714964409284,0.9444785852887034,-0.1001234098029217,0.8995956717911301,623.3333333333334,788.1318681318681,788.5347985347986,792.5641025641025,644.6886446886447,-0.102783,0.063416,0.794189,13.286285,10.497437,14.878845,1,4,1,1,2,50.000000
2024-12-17 14:08:33.274,,,,,,,,,,,,,,,,,,,,,,,,,,,,,,,,,,,,,,/muse/elements/blink
2024-12-17 14:08:33.402,1.624865662423162,1.023290322376014,0.6564609358720227,0.3188039862864205,2.040942500089266,0.5331730708982337,0.09257771068096225,0.3613209352318026,1.657931290826814,0.4577965212527769,0.3099679818496112,0.5673653818096529,1.433875651939806,1.033346235733761,0.1700318224350168,1.002071256960444,0.9208714964409284,0.9444785852887034,-0.1067852221200729,0.8995956717911301,698.2783882783883,770.4029304029305,800.6227106227107,792.1611721611722,638.2417582417582,-0.143860,0.103027,0.812561,-5.061798,-23.402405,-0.164490,1,4,1,1,2,50.000000
2024-12-17 14:08:33.898,1.624865662423162,1.023290322376014,0.9673416303984972,0.3188039862864205,2.040942500089266,0.5331730708982337,0.4232557661467914,0.3613209352318026,1.657931290826814,0.4577965212527769,0.3808227801255356,0.5673653818096529,1.433875651939806,1.033346235733761,0.1675436289326959,1.002071256960444,0.9208714964409284,0.9444785852887034,-0.1307939777102479,0.8995956717911301,1135.457875457875,798.6080586080586,780.8791208791209,823.1868131868132,741.7948717948718,-0.200867,-0.003113,0.889954,-7.551575,-20.172424,-0.082245,1,4,1,1,2,50.000000
2024-12-17 14:08:33.987,,,,,,,,,,,,,,,,,,,,,,,,,,,,,,,,,,,,,,/muse/elements/blink
2024-12-17 14:08:34.312,,,,,,,,,,,,,,,,,,,,,,,,,,,,,,,,,,,,,,/muse/elements/blink
2024-12-17 14:08:34.398,1.624865662423162,1.023290322376014,1.131403126486102,0.3188039862864205,2.040942500089266,0.5331730708982337,0.7101903087466354,0.3613209352318026,1.657931290826814,0.4577965212527769,0.3256847395012085,0.5673653818096529,1.433875651939806,1.033346235733761,0.1530996046064582,1.002071256960444,0.9208714964409284,0.9444785852887034,-0.1086044925607397,0.8995956717911301,568.1318681318681,800.6227106227107,790.5494505494506,834.0659340659341,664.4322344322344,-0.277588,0.122681,0.905884,10.265656,0.299072,-11.103058,1,4,1,1,2,50.000000
2024-12-17 14:08:34.736,,,,,,,,,,,,,,,,,,,,,,,,,,,,,,,,,,,,,,/muse/elements/blink
2024-12-17 14:08:34.914,1.624865662423162,1.023290322376014,1.218767334014602,0.3188039862864205,2.040942500089266,0.5331730708982337,0.8119810037848429,0.3613209352318026,1.657931290826814,0.4577965212527769,0.4186527472117296,0.5673653818096529,1.433875651939806,1.033346235733761,0.2760946899222649,1.002071256960444,0.9208714964409284,0.9444785852887034,-0.01950507563208135,0.8995956717911301,1014.175824175824,839.3040293040293,760.7326007326008,776.0439560439561,1004.908424908425,-0.382996,0.064941,1.328003,3.110352,-5.398254,4.299164,1,4,1,1,2,50.000000
2024-12-17 14:08:35.112,,,,,,,,,,,,,,,,,,,,,,,,,,,,,,,,,,,,,,/muse/elements/blink
2024-12-17 14:08:35.399,1.624865662423162,1.023290322376014,1.080065230475904,0.3188039862864205,2.040942500089266,0.5331730708982337,0.8324969579853196,0.3613209352318026,1.657931290826814,0.4577965212527769,0.655652518839241,0.5673653818096529,1.433875651939806,1.033346235733761,0.3312023420647541,1.002071256960444,0.9208714964409284,0.9444785852887034,-0.02097931626680179,0.8995956717911301,853.0036630036631,848.1684981684982,775.6410256410256,815.934065934066,840.9157509157509,0.032288,0.204102,0.750122,-1.659851,-3.207550,-9.802094,1,4,1,1,2,50.000000
2024-12-17 14:08:35.901,1.624865662423162,1.023290322376014,0.9924157901391685,0.3188039862864205,2.040942500089266,0.5331730708982337,0.7809773521207459,0.3613209352318026,1.657931290826814,0.4577965212527769,0.822519555313146,0.5673653818096529,1.433875651939806,1.033346235733761,0.4549171521179557,1.002071256960444,0.9208714964409284,0.9444785852887034,0.04404333702704118,0.8995956717911301,525.018315018315,764.7619047619048,815.1282051282052,790.1465201465202,966.6300366300367,-0.302185,0.150208,1.288879,9.188995,11.544189,15.544281,1,4,1,1,2,50.000000
2024-12-17 14:08:36.398,1.624865662423162,1.023290322376014,1.014547637242226,0.3188039862864205,2.040942500089266,0.5331730708982337,0.8051938188108603,0.3613209352318026,1.657931290826814,0.4577965212527769,0.8515257084100812,0.5673653818096529,1.433875651939806,1.033346235733761,0.5055288646054383,1.002071256960444,0.9208714964409284,0.9444785852887034,0.1039470951894305,0.8995956717911301,950.9157509157509,831.2454212454213,793.7728937728938,809.0842490842491,731.3186813186813,-0.232605,0.043823,1.119446,0.553284,-7.514191,0.216827,1,4,1,1,2,50.000000
2024-12-17 14:08:36.909,1.624865662423162,1.023290322376014,1.118645495373833,0.3188039862864205,2.040942500089266,0.5331730708982337,0.8433704367409531,0.3613209352318026,1.657931290826814,0.4577965212527769,0.8913677025240552,0.5673653818096529,1.433875651939806,1.033346235733761,0.4601850684664121,1.002071256960444,0.9208714964409284,0.9444785852887034,0.1034233183370644,0.8995956717911301,938.021978021978,794.981684981685,811.9047619047619,703.1135531135532,734.5421245421246,-0.077332,0.065613,0.687988,-5.158997,1.114044,-8.433838,1,4,1,1,2,50.000000
2024-12-17 14:08:37.367,,,,,,,,,,,,,,,,,,,,,,,,,,,,,,,,,,,,,,/muse/elements/blink
2024-12-17 14:08:37.401,1.624865662423162,1.023290322376014,1.186994601057225,0.3188039862864205,2.040942500089266,0.5331730708982337,0.76012778918994,0.3613209352318026,1.657931290826814,0.4577965212527769,0.7800917577685085,0.5673653818096529,1.433875651939806,1.033346235733761,0.2269678333196695,1.002071256960444,0.9208714964409284,0.9444785852887034,0.02080355603889507,0.8995956717911301,669.2673992673992,800.2197802197802,830.8424908424909,854.6153846153846,645.4945054945055,-0.144653,0.077271,0.790283,12.000275,6.990814,3.775787,1,4,1,1,2,50.000000
2024-12-17 14:08:37.789,,,,,,,,,,,,,,,,,,,,,,,,,,,,,,,,,,,,,,/muse/elements/blink
2024-12-17 14:08:37.898,1.624865662423162,1.023290322376014,1.207490382714715,0.3188039862864205,2.040942500089266,0.5331730708982337,0.7840725347353656,0.3613209352318026,1.657931290826814,0.4577965212527769,0.6149249141697607,0.5673653818096529,1.433875651939806,1.033346235733761,0.1894489850951936,1.002071256960444,0.9208714964409284,0.9444785852887034,-0.1023550785500811,0.8995956717911301,751.8681318681319,793.7728937728938,800.6227106227107,827.2161172161173,888.8644688644689,-0.109680,0.073303,0.762939,-1.368256,-14.766693,-15.671387,1,4,1,1,2,50.000000
2024-12-17 14:08:38.398,1.624865662423162,1.023290322376014,0.8119015367221782,0.3188039862864205,2.040942500089266,0.5331730708982337,0.7201128142742146,0.3613209352318026,1.657931290826814,0.4577965212527769,0.8989737432554034,0.5673653818096529,1.433875651939806,1.033346235733761,0.4162137133737142,1.002071256960444,0.9208714964409284,0.9444785852887034,0.1538447523923149,0.8995956717911301,587.0695970695971,805.4578754578755,793.3699633699634,834.0659340659341,1015.384615384615,-0.034485,0.036438,0.641785,10.721741,-5.622559,11.349792,1,4,1,1,2,50.000000
2024-12-17 14:08:38.898,1.624865662423162,1.023290322376014,0.8356722279322309,0.3188039862864205,2.040942500089266,0.5331730708982337,0.8611607366798654,0.3613209352318026,1.657931290826814,0.4577965212527769,0.8996366477291584,0.5673653818096529,1.433875651939806,1.033346235733761,0.5004009182976665,1.002071256960444,0.9208714964409284,0.9444785852887034,0.176228704808738,0.8995956717911301,605.6043956043957,808.2783882783883,813.1135531135532,786.9230769230769,836.0805860805862,0.006531,0.107605,0.779419,-0.747681,-13.473206,-3.835602,1,4,1,1,2,50.000000
2024-12-17 14:08:39.263,,,,,,,,,,,,,,,,,,,,,,,,,,,,,,,,,,,,,,/muse/elements/blink
2024-12-17 14:08:39.398,1.624865662423162,1.023290322376014,0.7378110974521165,0.3188039862864205,2.040942500089266,0.5331730708982337,0.7405962646202926,0.3613209352318026,1.657931290826814,0.4577965212527769,0.8996366477291584,0.5673653818096529,1.433875651939806,1.033346235733761,0.4251209218384882,1.002071256960444,0.9208714964409284,0.9444785852887034,0.1010027697185487,0.8995956717911301,801.025641025641,794.1758241758242,802.2344322344322,820.7692307692308,831.6483516483516,-0.027283,-0.000244,0.875122,7.596436,-16.015320,1.308441,1,2,1,1,2,50.000000
2024-12-17 14:08:39.909,1.624865662423162,1.023290322376014,0.8327468075202517,0.3188039862864205,2.040942500089266,0.5331730708982337,0.729189104523823,0.3613209352318026,1.657931290826814,0.4577965212527769,0.5192039973648113,0.5673653818096529,1.433875651939806,1.033346235733761,0.3249218368286654,1.002071256960444,0.9208714964409284,0.9444785852887034,0.04644692954783129,0.8995956717911301,661.6117216117216,804.2490842490843,803.040293040293,823.1868131868132,684.5787545787546,-0.028870,0.110107,0.957825,-1.532745,-6.385193,-6.818848,1,4,1,1,2,50.000000
2024-12-17 14:08:39.968,,,,,,,,,,,,,,,,,,,,,,,,,,,,,,,,,,,,,,/muse/elements/blink
2024-12-17 14:08:40.207,,,,,,,,,,,,,,,,,,,,,,,,,,,,,,,,,,,,,,/muse/elements/blink
2024-12-17 14:08:40.415,1.624865662423162,1.023290322376014,0.8637625975312574,0.3188039862864205,2.040942500089266,0.5331730708982337,0.718068910523297,0.3613209352318026,1.657931290826814,0.4577965212527769,0.4949156239188748,0.5673653818096529,1.433875651939806,1.033346235733761,0.407603338528223,1.002071256960444,0.9208714964409284,0.9444785852887034,0.1374640279646233,0.8995956717911301,1056.080586080586,799.0109890109891,807.4725274725275,836.0805860805862,709.1575091575091,-0.161804,-0.082581,1.006897,-1.166382,-6.153412,17.248993,1,2,1,1,2,50.000000
2024-12-17 14:08:40.495,,,,,,,,,,,,,,,,,,,,,,,,,,,,,,,,,,,,,,/muse/elements/blink
2024-12-17 14:08:40.903,1.624865662423162,1.023290322376014,0.9441739633183049,0.3188039862864205,2.040942500089266,0.5331730708982337,0.7945659046920279,0.3613209352318026,1.657931290826814,0.4577965212527769,0.4778781699781152,0.5673653818096529,1.433875651939806,1.033346235733761,0.4401258286362886,1.002071256960444,0.9208714964409284,0.9444785852887034,0.1949062216316822,0.8995956717911301,1241.025641025641,829.2307692307693,799.8168498168499,896.1172161172161,921.9047619047619,-0.099731,0.202881,1.326660,6.534729,-2.295380,11.058197,1,2,1,1,2,50.000000
2024-12-17 14:08:41.404,1.624865662423162,1.023290322376014,1.103328434311993,0.3188039862864205,2.040942500089266,0.5331730708982337,1.011069668365229,0.3613209352318026,1.657931290826814,0.4577965212527769,1.222909158774874,0.5673653818096529,1.433875651939806,1.033346235733761,0.6660250325127532,1.002071256960444,0.9208714964409284,0.9444785852887034,0.3258643563193083,0.8995956717911301,387.2161172161173,776.0439560439561,782.0879120879121,799.0109890109891,1497.289377289377,-0.278320,0.053528,1.090088,-4.059906,13.555450,-3.917847,1,4,1,1,2,50.000000
2024-12-17 14:08:41.898,,,,,,,,,,,,,,,,,,,,,,,,,,,,,,,,,,,,,,/muse/elements/blink
2024-12-17 14:08:41.911,1.624865662423162,1.023290322376014,1.055810190161175,0.3188039862864205,2.040942500089266,0.5331730708982337,0.8410833162558297,0.3613209352318026,1.657931290826814,0.4577965212527769,1.222909158774874,0.5673653818096529,1.433875651939806,1.033346235733761,0.6480161296752275,1.002071256960444,0.9208714964409284,0.9444785852887034,0.2119661282102702,0.8995956717911301,742.6007326007326,823.5897435897436,783.2967032967033,859.8534798534798,1124.981684981685,-0.269592,0.161255,1.415527,0.710297,-4.291687,-21.817322,1,4,1,1,2,50.000000
2024-12-17 14:08:42.398,1.624865662423162,1.023290322376014,1.065825679045691,0.3188039862864205,2.040942500089266,0.5331730708982337,0.7439670544951585,0.3613209352318026,1.657931290826814,0.4577965212527769,1.222909158774874,0.5673653818096529,1.433875651939806,1.033346235733761,0.6453516024270564,1.002071256960444,0.9208714964409284,0.9444785852887034,0.2121802003598274,0.8995956717911301,635.4212454212454,829.6336996336996,774.0293040293041,791.7582417582418,829.2307692307693,-0.302429,0.053467,1.341919,5.375824,-3.843079,20.007935,1,4,1,1,2,50.000000
2024-12-17 14:08:42.417,,,,,,,,,,,,,,,,,,,,,,,,,,,,,,,,,,,,,,/muse/elements/blink
2024-12-17 14:08:42.905,1.624865662423162,1.023290322376014,1.023559436365644,0.3188039862864205,2.040942500089266,0.5331730708982337,0.4324930007661871,0.3613209352318026,1.657931290826814,0.4577965212527769,0.8980775908460055,0.5673653818096529,1.433875651939806,1.033346235733761,0.6782703011327467,1.002071256960444,0.9208714964409284,0.9444785852887034,0.1879460104334428,0.8995956717911301,498.8278388278388,802.2344322344322,787.7289377289378,757.9120879120879,595.5311355311355,-0.064209,0.374451,0.955139,-6.721649,-6.459961,-30.079193,1,4,1,1,2,50.000000
2024-12-17 14:08:43.059,,,,,,,,,,,,,,,,,,,,,,,,,,,,,,,,,,,,,,/muse/elements/blink
2024-12-17 14:08:43.404,1.624865662423162,1.023290322376014,1.098056739508748,0.3188039862864205,2.040942500089266,0.5331730708982337,0.7194523720383221,0.3613209352318026,1.657931290826814,0.4577965212527769,0.9707916357737991,0.5673653818096529,1.433875651939806,1.033346235733761,0.6873215374389005,1.002071256960444,0.9208714964409284,0.9444785852887034,0.3038831732955381,0.8995956717911301,1384.871794871795,821.5750915750916,774.8351648351648,840.1098901098901,738.5714285714286,-0.141663,-0.004761,1.156677,-4.037476,8.187103,-8.912354,1,4,1,1,2,50.000000
2024-12-17 14:08:43.584,,,,,,,,,,,,,,,,,,,,,,,,,,,,,,,,,,,,,,/muse/elements/blink
2024-12-17 14:08:43.901,1.624865662423162,1.023290322376014,1.108914332171397,0.3188039862864205,2.040942500089266,0.5331730708982337,0.9281783232748599,0.3613209352318026,1.657931290826814,0.4577965212527769,0.918070338325238,0.5673653818096529,1.433875651939806,1.033346235733761,0.6475880449135912,1.002071256960444,0.9208714964409284,0.9444785852887034,0.3850366050383724,0.8995956717911301,787.3260073260074,829.6336996336996,797.8021978021978,793.3699633699634,657.985347985348,-0.367737,0.178833,1.629272,2.130890,2.960815,-8.344116,1,4,1,1,2,50.000000
2024-12-17 14:08:44.085,,,,,,,,,,,,,,,,,,,,,,,,,,,,,,,,,,,,,,/muse/elements/blink
2024-12-17 14:08:44.407,1.624865662423162,1.023290322376014,1.107167581719342,0.3188039862864205,2.040942500089266,0.5331730708982337,0.9898582335393282,0.3613209352318026,1.657931290826814,0.4577965212527769,0.8922890463059743,0.5673653818096529,1.433875651939806,1.033346235733761,0.5995920775611993,1.002071256960444,0.9208714964409284,0.9444785852887034,0.4057578548841272,0.8995956717911301,460.952380952381,808.6813186813187,767.985347985348,703.1135531135532,978.3150183150184,-0.206970,0.124634,1.091858,5.360870,15.753632,32.441864,1,4,1,1,2,50.000000
2024-12-17 14:08:44.587,,,,,,,,,,,,,,,,,,,,,,,,,,,,,,,,,,,,,,/muse/elements/blink
2024-12-17 14:08:44.897,1.624865662423162,1.023290322376014,1.039344248429548,0.3188039862864205,2.040942500089266,0.5331730708982337,0.97185410541391,0.3613209352318026,1.657931290826814,0.4577965212527769,0.8398976894177975,0.5673653818096529,1.433875651939806,1.033346235733761,0.6251612297435032,1.002071256960444,0.9208714964409284,0.9444785852887034,0.3397167390661636,0.8995956717911301,915.4578754578755,803.040293040293,792.1611721611722,865.4945054945056,657.985347985348,-0.191650,0.039551,0.845154,2.452393,6.504822,4.740295,1,4,1,1,2,50.000000
2024-12-17 14:08:44.949,,,,,,,,,,,,,,,,,,,,,,,,,,,,,,,,,,,,,,/muse/elements/blink
2024-12-17 14:08:45.398,1.624865662423162,1.023290322376014,1.017322513590301,0.3188039862864205,2.040942500089266,0.5331730708982337,0.9508329084890454,0.3613209352318026,1.657931290826814,0.4577965212527769,0.7905059192009678,0.5673653818096529,1.433875651939806,1.033346235733761,0.684439083295892,1.002071256960444,0.9208714964409284,0.9444785852887034,0.2960487697196076,0.8995956717911301,902.5641025641025,782.893772893773,833.6630036630037,801.8315018315019,708.7545787545788,-0.055603,0.073242,0.879700,-1.921539,-2.549591,5.158997,1,2,1,1,2,50.000000
2024-12-17 14:08:45.898,1.624865662423162,1.023290322376014,0.835036283662052,0.3188039862864205,2.040942500089266,0.5331730708982337,0.9265337697166146,0.3613209352318026,1.657931290826814,0.4577965212527769,0.2644241847639796,0.5673653818096529,1.433875651939806,1.033346235733761,0.6950907919284358,1.002071256960444,0.9208714964409284,0.9444785852887034,0.1408794894720403,0.8995956717911301,771.2087912087912,769.5970695970697,820.7692307692308,803.040293040293,1205.164835164835,-0.153076,0.089050,0.989075,4.089813,1.106567,15.207825,1,2,1,1,2,50.000000
2024-12-17 14:08:46.412,1.624865662423162,1.023290322376014,0.835036283662052,0.3188039862864205,2.040942500089266,0.5331730708982337,0.9265337697166146,0.3613209352318026,1.657931290826814,0.4577965212527769,0.2644241847639796,0.5673653818096529,1.433875651939806,1.033346235733761,0.6950907919284358,1.002071256960444,0.9208714964409284,0.9444785852887034,0.1408794894720403,0.8995956717911301,730.5128205128206,769.5970695970697,705.5311355311355,782.4908424908425,671.2820512820513,-0.136658,0.123901,0.988464,-11.783447,2.586975,64.532318,1,2,1,1,2,50.000000
2024-12-17 14:08:46.908,1.624865662423162,1.023290322376014,0.835036283662052,0.3188039862864205,2.040942500089266,0.5331730708982337,0.9265337697166146,0.3613209352318026,1.657931290826814,0.4577965212527769,0.2644241847639796,0.5673653818096529,1.433875651939806,1.033346235733761,0.6950907919284358,1.002071256960444,0.9208714964409284,0.9444785852887034,0.1408794894720403,0.8995956717911301,728.0952380952381,793.3699633699634,756.3003663003664,792.967032967033,770.8058608058608,-0.418030,0.051331,0.975403,-30.684814,27.230530,108.443604,1,2,1,1,2,50.000000
2024-12-17 14:08:47.395,,,,,,,,,,,,,,,,,,,,,,,,,,,,,,,,,,,,,,/muse/elements/blink
2024-12-17 14:08:47.407,1.624865662423162,1.023290322376014,0.835036283662052,0.3188039862864205,2.040942500089266,0.5331730708982337,0.9265337697166146,0.3613209352318026,1.657931290826814,0.4577965212527769,0.2644241847639796,0.5673653818096529,1.433875651939806,1.033346235733761,0.6950907919284358,1.002071256960444,0.9208714964409284,0.9444785852887034,0.1408794894720403,0.8995956717911301,910.6227106227107,805.0549450549451,776.0439560439561,837.2893772893773,740.1831501831502,-0.246094,0.124329,1.039307,-5.413208,-4.478607,40.942993,1,2,1,1,2,50.000000
2024-12-17 14:08:47.815,,,,,,,,,,,,,,,,,,,,,,,,,,,,,,,,,,,,,,/muse/elements/blink
2024-12-17 14:08:47.898,1.624865662423162,1.023290322376014,0.835036283662052,0.3188039862864205,2.040942500089266,0.5331730708982337,0.9265337697166146,0.3613209352318026,1.657931290826814,0.4577965212527769,0.2644241847639796,0.5673653818096529,1.433875651939806,1.033346235733761,0.6950907919284358,1.002071256960444,0.9208714964409284,0.9444785852887034,0.1408794894720403,0.8995956717911301,906.5934065934066,816.3369963369963,783.6996336996338,850.989010989011,653.956043956044,-0.306458,0.046387,0.946289,-13.862000,0.523376,85.130920,1,2,1,1,2,50.000000
2024-12-17 14:08:48.219,,,,,,,,,,,,,,,,,,,,,,,,,,,,,,,,,,,,,,/muse/elements/blink
2024-12-17 14:08:48.397,1.624865662423162,1.023290322376014,0.835036283662052,0.3188039862864205,2.040942500089266,0.5331730708982337,0.9265337697166146,0.3613209352318026,1.657931290826814,0.4577965212527769,0.2644241847639796,0.5673653818096529,1.433875651939806,1.033346235733761,0.6950907919284358,1.002071256960444,0.9208714964409284,0.9444785852887034,0.1408794894720403,0.8995956717911301,850.1831501831502,782.893772893773,811.0989010989011,788.1318681318681,765.9706959706959,-0.224976,0.020569,1.006165,-1.555176,-8.620758,-0.643005,1,2,1,1,2,50.000000
2024-12-17 14:08:48.503,,,,,,,,,,,,,,,,,,,,,,,,,,,,,,,,,,,,,,/muse/elements/blink
2024-12-17 14:08:48.905,1.624865662423162,1.023290322376014,0.835036283662052,0.3188039862864205,2.040942500089266,0.5331730708982337,0.9265337697166146,0.3613209352318026,1.657931290826814,0.4577965212527769,0.2644241847639796,0.5673653818096529,1.433875651939806,1.033346235733761,0.6950907919284358,1.002071256960444,0.9208714964409284,0.9444785852887034,0.1408794894720403,0.8995956717911301,807.4725274725275,809.8901098901099,798.6080586080586,775.6410256410256,904.981684981685,-0.102539,0.103271,1.007874,-1.286011,-17.981720,-14.804077,1,2,1,1,2,50.000000
2024-12-17 14:08:49.398,1.624865662423162,1.023290322376014,0.835036283662052,0.3188039862864205,2.040942500089266,0.5331730708982337,0.9265337697166146,0.3613209352318026,1.657931290826814,0.4577965212527769,0.2644241847639796,0.5673653818096529,1.433875651939806,1.033346235733761,0.6950907919284358,1.002071256960444,0.9208714964409284,0.9444785852887034,0.1408794894720403,0.8995956717911301,857.032967032967,796.5934065934066,815.934065934066,828.8278388278388,631.7948717948718,-0.049866,0.087341,1.017517,1.816864,-1.375732,2.078552,1,2,1,1,2,50.000000
2024-12-17 14:08:49.898,1.624865662423162,1.023290322376014,0.9411166350958966,0.3188039862864205,2.040942500089266,0.5331730708982337,0.7754752917793538,0.3613209352318026,1.657931290826814,0.4577965212527769,0.7118853381278999,0.5673653818096529,1.433875651939806,1.033346235733761,0.3372433674534584,1.002071256960444,0.9208714964409284,0.9444785852887034,0.2364180620092148,0.8995956717911301,772.8205128205128,806.2637362637363,830.4395604395604,749.047619047619,773.6263736263736,-0.005310,0.049561,0.991394,1.211243,-5.360870,-2.362671,1,2,1,1,2,50.000000
2024-12-17 14:08:50.143,,,,,,,,,,,,,,,,,,,,,,,,,,,,,,,,,,,,,,/muse/elements/blink
2024-12-17 14:08:50.398,1.624865662423162,0.6623246909622781,0.8721627667202783,0.3188039862864205,2.040942500089266,0.7341593219488968,0.5456043983960667,0.3613209352318026,1.657931290826814,0.6857504265700162,0.5092358289258681,0.5673653818096529,1.433875651939806,0.851187358390151,0.1743279191002361,1.002071256960444,0.9208714964409284,0.6601571880288934,0.01871856688263509,0.8995956717911301,660,825.2014652014652,793.7728937728938,718.021978021978,721.6483516483516,0.074158,0.097046,1.015198,3.588867,-0.904694,-12.949829,1,2,1,1,2,50.000000
2024-12-17 14:08:50.610,,,,,,,,,,,,,,,,,,,,,,,,,,,,,,,,,,,,,,/muse/elements/blink
2024-12-17 14:08:50.898,1.624865662423162,0.9091648892777449,0.9047680443329394,0.3188039862864205,2.040942500089266,0.8897390548501615,0.6977377099681433,0.3613209352318026,1.657931290826814,0.7423558762257564,0.5810326973269253,0.5673653818096529,1.433875651939806,0.9340319803207404,0.1522034295458201,1.002071256960444,0.9208714964409284,0.7453949564121016,0.1497448077876118,0.8995956717911301,1220.07326007326,832.0512820512821,806.6666666666667,894.1025641025641,572.967032967033,-0.051453,0.012512,0.920532,3.693542,-15.604095,-14.557343,1,2,1,1,2,50.000000
2024-12-17 14:08:50.952,,,,,,,,,,,,,,,,,,,,,,,,,,,,,,,,,,,,,,/muse/elements/blink
2024-12-17 14:08:51.186,,,,,,,,,,,,,,,,,,,,,,,,,,,,,,,,,,,,,,/muse/elements/blink
2024-12-17 14:08:51.411,1.624865662423162,0.9739037543348191,0.9594112358922445,0.3188039862864205,2.040942500089266,0.8781037978305244,0.816639028722183,0.3613209352318026,1.657931290826814,0.7634949969553984,0.5810326973269253,0.5673653818096529,1.433875651939806,0.9229218985461338,0.1597510234551617,1.002071256960444,0.9208714964409284,0.7627814034142083,0.2300480534795946,0.8995956717911301,863.4798534798535,819.5604395604396,808.6813186813187,873.956043956044,722.4542124542124,-0.025879,0.128967,1.014038,1.128998,-4.710388,9.854431,1,2,1,1,2,50.000000
2024-12-17 14:08:51.660,,,,,,,,,,,,,,,,,,,,,,,,,,,,,,,,,,,,,,/muse/elements/blink
2024-12-17 14:08:51.898,1.624865662423162,1.05494178447545,1.087249198189145,0.3188039862864205,2.040942500089266,0.8718656845488296,0.9887216226071854,0.3613209352318026,1.657931290826814,0.662211153887069,0.5569646324900177,0.5673653818096529,1.433875651939806,0.9511383821648181,0.1762472688333968,1.002071256960444,0.9208714964409284,0.8097639542736174,0.4341582803493872,0.8995956717911301,778.8644688644689,805.8608058608058,813.1135531135532,912.6373626373627,828.8278388278388,-0.138428,0.122620,0.853882,3.095398,-29.331512,38.079376,1,4,1,1,2,50.000000
2024-12-17 14:08:52.066,,,,,,,,,,,,,,,,,,,,,,,,,,,,,,,,,,,,,,/muse/elements/blink
2024-12-17 14:08:52.398,1.624865662423162,1.024400286342302,1.087249198189145,0.3188039862864205,2.040942500089266,0.6676562720973154,0.9887216226071854,0.3613209352318026,1.657931290826814,0.3802093994159473,0.5569646324900177,0.5673653818096529,1.433875651939806,0.8884732000439988,0.1762472688333968,1.002071256960444,0.9208714964409284,0.7947372990678375,0.4341582803493872,0.8995956717911301,756.7032967032967,807.8754578754579,803.4432234432235,832.8571428571429,887.2527472527473,-0.024475,0.107300,0.901489,4.463654,-18.303223,4.538422,1,4,1,1,2,50.000000
2024-12-17 14:08:52.585,,,,,,,,,,,,,,,,,,,,,,,,,,,,,,,,,,,,,,/muse/elements/blink
2024-12-17 14:08:52.898,1.624865662423162,1.012545796527807,1.367754751962239,0.3188039862864205,2.040942500089266,0.6094240897645762,1.204411964895648,0.3613209352318026,1.657931290826814,0.3314567742080074,0.7976433275889524,0.5673653818096529,1.433875651939806,0.8877247169787131,0.5225529210277311,1.002071256960444,0.9208714964409284,0.7964805846323491,0.1300850395247654,0.8995956717911301,844.9450549450549,852.6007326007326,803.040293040293,825.2014652014652,780.0732600732601,0.037354,0.125977,0.942017,-5.435638,-5.652466,-29.907227,1,2,1,1,2,50.000000
2024-12-17 14:08:53.105,,,,,,,,,,,,,,,,,,,,,,,,,,,,,,,,,,,,,,/muse/elements/blink
2024-12-17 14:08:53.392,,,,,,,,,,,,,,,,,,,,,,,,,,,,,,,,,,,,,,/muse/elements/blink
2024-12-17 14:08:53.407,1.624865662423162,1.012545796527807,1.344446431848222,0.3188039862864205,2.040942500089266,0.6094240897645762,1.197014583072472,0.3613209352318026,1.657931290826814,0.3314567742080074,0.7976433275889524,0.5673653818096529,1.433875651939806,0.8877247169787131,0.5221239954315183,1.002071256960444,0.9208714964409284,0.7964805846323491,0.2384567259446872,0.8995956717911301,703.1135531135532,811.0989010989011,793.3699633699634,846.5567765567765,791.3553113553114,0.239380,0.083069,1.043945,-5.973969,-16.262054,-9.046936,1,2,1,1,2,50.000000
2024-12-17 14:08:53.817,,,,,,,,,,,,,,,,,,,,,,,,,,,,,,,,,,,,,,/muse/elements/blink
2024-12-17 14:08:53.899,1.624865662423162,1.012545796527807,1.247581233306906,0.3188039862864205,2.040942500089266,0.6094240897645762,1.049111722867485,0.3613209352318026,1.657931290826814,0.3314567742080074,0.737009275992193,0.5673653818096529,1.433875651939806,0.8877247169787131,0.6621755709673132,1.002071256960444,0.9208714964409284,0.7964805846323491,0.4688228727529185,0.8995956717911301,843.7362637362637,782.893772893773,800.2197802197802,792.5641025641025,777.2527472527473,0.130127,0.063232,0.902405,4.613190,13.189087,-21.278992,1,2,1,1,2,50.000000
2024-12-17 14:08:54.102,,,,,,,,,,,,,,,,,,,,,,,,,,,,,,,,,,,,,,/muse/elements/blink
2024-12-17 14:08:54.398,1.624865662423162,1.012545796527807,1.075754446136473,0.3188039862864205,2.040942500089266,0.6094240897645762,1.014272064802125,0.3613209352318026,1.657931290826814,0.3314567742080074,0.6087952841013358,0.5673653818096529,1.433875651939806,0.8877247169787131,0.7899170255146181,1.002071256960444,0.9208714964409284,0.7964805846323491,0.6453103771681019,0.8995956717911301,1023.443223443223,814.3223443223443,790.5494505494506,837.2893772893773,722.8571428571429,-0.066040,0.085510,0.995361,-0.149536,-12.217102,5.413208,1,2,1,1,2,50.000000
2024-12-17 14:08:54.506,,,,,,,,,,,,,,,,,,,,,,,,,,,,,,,,,,,,,,/muse/elements/blink
2024-12-17 14:08:54.898,1.624865662423162,1.012545796527807,1.075754446136473,0.3188039862864205,2.040942500089266,0.6094240897645762,1.014272064802125,0.3613209352318026,1.657931290826814,0.3314567742080074,0.6087952841013358,0.5673653818096529,1.433875651939806,0.8877247169787131,0.7899170255146181,1.002071256960444,0.9208714964409284,0.7964805846323491,0.6453103771681019,0.8995956717911301,832.0512820512821,806.6666666666667,791.3553113553114,817.5457875457876,826.8131868131868,0.075867,0.070190,1.035217,2.347717,-6.445007,6.213226,1,2,1,1,2,45.000000
