TimeStamp,Delta_TP9,Delta_AF7,Delta_AF8,Delta_TP10,Theta_TP9,Theta_AF7,Theta_AF8,Theta_TP10,Alpha_TP9,Alpha_AF7,Alpha_AF8,Alpha_TP10,Beta_TP9,Beta_AF7,Beta_AF8,Beta_TP10,Gamma_TP9,Gamma_AF7,Gamma_AF8,Gamma_TP10,RAW_TP9,RAW_AF7,RAW_AF8,RAW_TP10,AUX_RIGHT,Accelerometer_X,Accelerometer_Y,Accelerometer_Z,Gyro_X,Gyro_Y,Gyro_Z,HeadBandOn,HSI_TP9,HSI_AF7,HSI_AF8,HSI_TP10,Battery,Elements
2024-11-20 11:48:35.254,,,,,,,,,,,,,,,,,,,,,,,,,,,,,,,,,,,,,,/muse/event/connected Muse-D2D3
2024-11-20 11:48:36.255,1.420072686933824,-0.4503973357734133,0.0429278203622832,1.051685913824764,0.6874302724660054,-0.2446443494621761,-0.08620198885064069,0.3618753201810975,0.6666809220797285,0.2847750695039111,0.3774255143654595,0.3937397142580329,0.8385760070101007,0.603344324833013,1.022189775671702,0.8461712152910986,0.2105657857334167,0.4443536067322214,0.5671122613130171,0.3750434034045309,855.0183150183151,807.0695970695971,799.4139194139194,828.021978021978,739.3772893772893,-0.471619,0.044495,0.904907,3.289795,-2.392578,-0.269165,1,1,1,1,1,80.000000
2024-11-20 11:48:36.987,,,,,,,,,,,,,,,,,,,,,,,,,,,,,,,,,,,,,,/muse/elements/blink
2024-11-20 11:48:37.262,1.420072686933824,0.239718182475802,0.1227570194538875,1.143946178580317,0.6874302724660054,0.04636904429626233,0.1244691226971811,0.3607052482015615,0.6666809220797285,0.5255333883816882,0.5829839680030483,0.4829129483091392,0.8385760070101007,0.6903997523843338,0.9175987573499824,0.7097000908666874,0.2105657857334167,0.5076921348757462,0.5578088453248167,0.3672665752904057,757.5091575091575,801.4285714285714,808.2783882783883,801.4285714285714,671.2820512820513,-0.461609,0.049133,0.903503,2.444916,-3.215027,-0.074768,1,1,1,1,1,80.000000
2024-11-20 11:48:38.264,1.420072686933824,0.4881692967507893,0.4559920247067846,0.6311207577991449,0.6874302724660054,0.257819960337657,0.3068932797351888,0.4426611492453003,0.6666809220797285,0.4963183057560518,0.5636519109990999,0.4617601818238167,0.8385760070101007,0.685909986041693,0.9839615454605998,0.6614506607158346,0.2105657857334167,0.5656762530853106,0.6871582923412065,0.3538395532374187,778.0586080586081,800.2197802197802,813.5164835164835,800.2197802197802,764.3589743589744,-0.451294,0.046326,0.913025,3.005676,-2.646790,0.104675,1,1,1,1,1,80.000000
2024-11-20 11:48:39.255,1.420072686933824,-0.1092186068148364,-0.241749095142538,0.8257815595950593,0.6874302724660054,-0.1413272018813542,-0.0462890148217598,0.5180329712575282,0.6666809220797285,0.1745715020387486,0.3963133766714422,0.4508642684351969,0.8385760070101007,0.7866361764759281,0.9128732883620715,0.6088692659566914,0.2105657857334167,0.5663105541199609,0.5452743020335652,0.3034285654693967,815.934065934066,791.7582417582418,804.2490842490843,819.5604395604396,782.0879120879121,-0.524841,0.027405,0.943542,-3.708496,-8.030090,7.476807,1,1,1,1,1,80.000000
2024-11-20 11:48:39.940,,,,,,,,,,,,,,,,,,,,,,,,,,,,,,,,,,,,,,/muse/elements/blink
2024-11-20 11:48:40.255,1.420072686933824,0.09885411528864581,-0.2705155157292044,1.029448696409011,0.6874302724660054,-0.2118759830766855,-0.2651596878732641,0.7304001333161022,0.6666809220797285,0.1846673786009137,0.3207816020184566,0.5988528393033486,0.8385760070101007,0.7990799083809239,1.014564761586346,0.5516869466232488,0.2105657857334167,0.5725725518543922,0.8917992367026143,0.3508865196363432,670.8791208791209,823.1868131868132,809.0842490842491,790.1465201465202,650.3296703296703,-0.382080,0.083984,0.855103,2.287903,-2.325287,-3.117828,1,1,1,1,1,80.000000
2024-11-20 11:48:40.748,,,,,,,,,,,,,,,,,,,,,,,,,,,,,,,,,,,,,,/muse/elements/blink
2024-11-20 11:48:41.263,1.420072686933824,0.3084465285254676,-0.02944752901994105,1.259037035961023,0.6874302724660054,-0.01593462335951764,-0.04089759922388759,0.7538057584009398,0.6666809220797285,0.6822909812903862,0.3600616831130818,0.3887615709693983,0.8385760070101007,0.9170624849943341,1.049046785617815,0.575158749882047,0.2105657857334167,0.5873588267553312,0.9552270626227169,0.4784387905008278,41.0989010989011,805.4578754578755,823.5897435897436,815.1282051282052,560.4761904761905,-0.449036,0.049561,1.010559,3.327179,-0.994415,-15.028381,1,4,1,1,1,80.000000
2024-11-20 11:48:41.430,,,,,,,,,,,,,,,,,,,,,,,,,,,,,,,,,,,,,,/muse/elements/blink
2024-11-20 11:48:42.255,1.420072686933824,0.388116587539648,0.1218645645489026,1.259037035961023,0.6874302724660054,0.1879541030149611,-0.1905784979336709,0.7538057584009398,0.6666809220797285,0.663556732842862,0.3830894827732352,0.3887615709693983,0.8385760070101007,0.8341764006020815,1.158912269622832,0.575158749882047,0.2105657857334167,0.7175630890722413,0.9346587191802752,0.4784387905008278,982.3443223443223,806.6666666666667,810.2930402930403,817.5457875457876,716.4102564102565,-0.404114,0.039062,0.889832,3.820648,-4.216919,4.231873,1,2,1,1,1,80.000000
2024-11-20 11:48:42.882,,,,,,,,,,,,,,,,,,,,,,,,,,,,,,,,,,,,,,/muse/elements/blink
2024-11-20 11:48:43.255,1.420072686933824,0.2686381112926033,0.2774239385433837,1.063807766117773,0.6874302724660054,0.01972374303572541,-0.05806373871457991,1.727518027820135,0.6666809220797285,0.4609707077604639,0.4420256358667582,1.303716739320552,0.8385760070101007,0.6768026529969057,1.083128210126414,1.094066765967786,0.2105657857334167,0.6270206260875403,0.8374545399057287,0.6238961266356368,581.025641025641,784.5054945054945,788.1318681318681,804.2490842490843,525.018315018315,-0.473572,0.085999,1.135437,6.557159,-0.411224,5.076752,1,4,1,1,2,80.000000
2024-11-20 11:48:43.587,,,,,,,,,,,,,,,,,,,,,,,,,,,,,,,,,,,,,,/muse/elements/blink
2024-11-20 11:48:44.209,,,,,,,,,,,,,,,,,,,,,,,,,,,,,,,,,,,,,,/muse/elements/blink
2024-11-20 11:48:44.256,1.420072686933824,0.5440549739233137,0.3318632814096821,1.510315030434293,0.6874302724660054,-0.1062617191970729,-0.1386269135195219,1.789765763883116,0.6666809220797285,0.354322204981493,0.1690072212036486,1.414882788306338,0.8385760070101007,0.6508082719921889,0.9873533299692795,1.243477771640108,0.2105657857334167,0.6606817074738166,0.6870961641804628,0.5703545085834748,1194.688644688645,809.4871794871796,809.8901098901099,821.1721611721612,917.4725274725275,-0.375244,0.061707,0.840332,1.286011,-4.194489,-2.504730,1,4,1,1,1,80.000000
2024-11-20 11:48:44.811,,,,,,,,,,,,,,,,,,,,,,,,,,,,,,,,,,,,,,/muse/elements/blink
2024-11-20 11:48:45.255,1.420072686933824,0.4422451050407353,0.7194266465461794,1.562020713165456,0.6874302724660054,-0.3736203180389839,0.2931878454524041,1.75570346009442,0.6666809220797285,0.2543329349053892,0.8349156775180571,1.406762856485331,0.8385760070101007,0.8303863144536625,0.7542262929558652,1.25129100989666,0.2105657857334167,0.7486042369934919,0.6893274054401155,0.5620314855068353,486.7399267399268,795.7875457875458,811.9047619047619,802.6373626373627,745.4212454212454,-0.521240,0.023193,1.135803,-0.732727,-0.897217,-10.392761,1,4,1,1,1,80.000000
2024-11-20 11:48:45.521,,,,,,,,,,,,,,,,,,,,,,,,,,,,,,,,,,,,,,/muse/elements/blink
2024-11-20 11:48:46.259,1.420072686933824,0.4825844892424071,0.7855701570929753,1.562020713165456,0.6874302724660054,0.2357384126130028,0.3183666347035054,1.75570346009442,0.6666809220797285,0.2613771522480697,0.8349156775180571,1.406762856485331,0.8385760070101007,0.7341175706427513,0.8602844549933042,1.25129100989666,0.2105657857334167,0.4123358370769376,0.5444072217274505,0.5620314855068353,680.5494505494506,798.2051282051282,810.2930402930403,771.2087912087912,554.0293040293041,-0.358582,0.025879,0.833252,4.635620,-3.745880,3.013153,1,4,1,1,2,80.000000
2024-11-20 11:48:46.822,,,,,,,,,,,,,,,,,,,,,,,,,,,,,,,,,,,,,,/muse/elements/blink
2024-11-20 11:48:47.256,1.420072686933824,0.3669572835334909,0.1555548601708733,1.562020713165456,0.6874302724660054,0.1844368756907811,-0.1431175596111965,1.75570346009442,0.6666809220797285,0.2815676708209431,0.4428101773873152,1.406762856485331,0.8385760070101007,0.6024260916315752,0.9159188530855371,1.25129100989666,0.2105657857334167,0.3899910136536049,0.522248533036641,0.5620314855068353,1250.29304029304,802.2344322344322,788.1318681318681,782.0879120879121,867.5091575091575,-0.446960,0.073242,1.028198,3.147736,-1.151428,7.566528,1,4,1,1,2,80.000000
2024-11-20 11:48:47.666,,,,,,,,,,,,,,,,,,,,,,,,,,,,,,,,,,,,,,/muse/elements/blink
2024-11-20 11:48:48.134,,,,,,,,,,,,,,,,,,,,,,,,,,,,,,,,,,,,,,/muse/elements/blink
2024-11-20 11:48:48.256,1.420072686933824,0.5958599323831553,0.05839865683698802,1.562020713165456,0.6874302724660054,0.1204124835190614,-0.1620496549995663,1.75570346009442,0.6666809220797285,0.1391723660063585,0.110103509698863,1.406762856485331,0.8385760070101007,0.6219849622236552,0.7865493431655727,1.25129100989666,0.2105657857334167,0.3063035254777148,0.5063986840189036,0.5620314855068353,361.4285714285714,781.6849816849817,807.8754578754579,785.7142857142858,613.6630036630037,-0.359619,0.037842,0.864197,1.428070,-4.927216,-3.790741,1,4,1,1,2,80.000000
2024-11-20 11:48:49.260,1.420072686933824,0.4767722574974562,0.169612314226527,1.228020930101337,0.6874302724660054,0.2619888028360654,-0.04052526001948486,1.581791160126395,0.6666809220797285,0.2712614444700198,0.4421973315893983,1.551911789023911,0.8385760070101007,0.6738349210656106,0.7516297567801751,0.9972163275653187,0.2105657857334167,0.4630511271212209,0.3939446681362913,0.4484105906033399,812.3076923076924,817.5457875457876,758.3150183150184,778.0586080586081,691.025641025641,-0.508667,0.035889,1.038940,-0.575714,-1.846771,-7.895508,1,4,1,1,2,80.000000
2024-11-20 11:48:49.494,,,,,,,,,,,,,,,,,,,,,,,,,,,,,,,,,,,,,,/muse/elements/blink
2024-11-20 11:48:49.693,,,,,,,,,,,,,,,,,,,,,,,,,,,,,,,,,,,,,,/muse/elements/blink
2024-11-20 11:48:50.255,1.420072686933824,0.7551891959549568,0.6339954555880017,1.28999576994745,0.6874302724660054,0.6309902847530321,0.2408564035831692,1.521254085759948,0.6666809220797285,0.7078539291759819,0.6561720038840871,1.593937052847736,0.8385760070101007,0.8601000855129992,0.6373917357995126,1.058852158952114,0.2105657857334167,0.6142582047777412,0.3620444258149223,0.4763046875724364,841.3186813186813,762.7472527472528,798.2051282051282,789.7435897435897,757.9120879120879,-0.393738,0.014648,0.840271,6.332855,0.284119,1.547699,1,4,1,1,1,80.000000
2024-11-20 11:48:50.297,,,,,,,,,,,,,,,,,,,,,,,,,,,,,,,,,,,,,,/muse/elements/blink
2024-11-20 11:48:50.804,,,,,,,,,,,,,,,,,,,,,,,,,,,,,,,,,,,,,,/muse/elements/blink
2024-11-20 11:48:51.255,1.420072686933824,0.6837898118598106,0.235207576534829,1.084052446400029,0.6874302724660054,0.362713856267277,-0.204742428862562,1.557648997755212,0.6666809220797285,0.7022592689126763,-0.1369450281174215,1.783701573929635,0.8385760070101007,0.7140887715498048,0.7433434360800965,0.877780094200426,0.2105657857334167,0.4914847439145124,0.4702674905570097,0.3128801355241153,579.4139194139194,803.4432234432235,801.025641025641,814.3223443223443,803.4432234432235,-0.472778,0.027283,1.050720,2.145844,-6.123505,7.252502,1,4,1,1,1,80.000000
2024-11-20 11:48:51.625,,,,,,,,,,,,,,,,,,,,,,,,,,,,,,,,,,,,,,/muse/elements/blink
2024-11-20 11:48:52.112,,,,,,,,,,,,,,,,,,,,,,,,,,,,,,,,,,,,,,/muse/elements/blink
2024-11-20 11:48:52.255,1.420072686933824,0.2902462353357512,0.1720717299192736,1.099752072697991,0.6874302724660054,-0.2786939738637516,-0.2121515540860831,1.634340871538553,0.6666809220797285,0.3347605877496108,0.2225153078637502,1.617003614802552,0.8385760070101007,0.5550926338530935,0.794836802909557,0.871113622830348,0.2105657857334167,0.584459123643606,0.3820032784186914,0.3593002385853258,1298.644688644689,776.8498168498169,798.6080586080586,821.978021978022,1125.384615384615,-0.398804,0.118530,0.865295,-2.011261,-4.037476,8.030090,1,4,1,1,1,75.000000
2024-11-20 11:48:52.756,,,,,,,,,,,,,,,,,,,,,,,,,,,,,,,,,,,,,,/muse/elements/blink
2024-11-20 11:48:53.262,1.420072686933824,0.5966704849820151,0.4202751280584365,1.197143064946569,0.6874302724660054,0.1768178870854908,-0.01277975982325849,1.709502484610656,0.6666809220797285,0.1548461915145579,0.2460200617784379,1.758606911096449,0.8385760070101007,0.7120449435897419,0.8811774189444933,0.9159036470537103,0.2105657857334167,0.5262741981900226,0.3562959456684939,0.4054719932968879,965.0183150183151,787.7289377289378,810.6959706959707,824.3956043956044,909.0109890109891,-0.420959,0.123596,1.006592,3.760834,1.300964,0.665436,1,4,1,1,1,75.000000
2024-11-20 11:48:53.340,,,,,,,,,,,,,,,,,,,,,,,,,,,,,,,,,,,,,,/muse/elements/blink
2024-11-20 11:48:54.255,1.420072686933824,0.7618966345677637,0.4905214732409911,1.175663191980477,0.6874302724660054,0.3182129809886818,0.07754633954464984,1.707973675716566,0.6666809220797285,0.4673933284260929,0.1407480980209426,1.750883000774767,0.8385760070101007,0.7959389758218492,0.6642245233869964,0.928289876081015,0.2105657857334167,0.6470808405545807,0.6407536129501947,0.4178735697920464,0,815.5311355311355,840.1098901098901,621.7216117216118,64.46886446886447,-0.453674,-0.004333,0.852844,8.172150,-8.037567,-11.222687,1,4,1,1,1,75.000000
2024-11-20 11:48:54.406,,,,,,,,,,,,,,,,,,,,,,,,,,,,,,,,,,,,,,/muse/elements/blink
2024-11-20 11:48:55.255,1.420072686933824,0.8045790661164193,0.5452422530734593,1.175663191980477,0.6874302724660054,0.5306389861774756,0.2040891217036896,1.707973675716566,0.6666809220797285,0.4246459870859273,0.3310395778976146,1.750883000774767,0.8385760070101007,0.8139842848682091,0.581311762919918,0.928289876081015,0.2105657857334167,0.7041970734108334,0.5571058037553004,0.4178735697920464,270.3663003663004,791.3553113553114,798.2051282051282,763.5531135531136,620.9157509157509,-0.389893,-0.005005,0.849243,3.267365,2.452393,-7.200165,1,4,1,1,2,75.000000
2024-11-20 11:48:55.272,,,,,,,,,,,,,,,,,,,,,,,,,,,,,,,,,,,,,,/muse/elements/blink
2024-11-20 11:48:55.454,,,,,,,,,,,,,,,,,,,,,,,,,,,,,,,,,,,,,,/muse/elements/jaw_clench
2024-11-20 11:48:56.005,,,,,,,,,,,,,,,,,,,,,,,,,,,,,,,,,,,,,,/muse/elements/blink
2024-11-20 11:48:56.266,1.420072686933824,0.8045790661164193,0.7843452659454131,1.175663191980477,0.6874302724660054,0.5306389861774756,0.1413835139159331,1.707973675716566,0.6666809220797285,0.4246459870859273,0.3069205704492758,1.750883000774767,0.8385760070101007,0.8139842848682091,1.016095073987507,0.928289876081015,0.2105657857334167,0.7041970734108334,0.6726283889866478,0.4178735697920464,1627.032967032967,825.2014652014652,814.3223443223443,807.8754578754579,1305.091575091575,-0.462036,0.133057,0.953674,1.256104,0.762634,7.925415,1,4,1,1,2,75.000000
2024-11-20 11:48:56.588,,,,,,,,,,,,,,,,,,,,,,,,,,,,,,,,,,,,,,/muse/elements/blink
2024-11-20 11:48:57.195,,,,,,,,,,,,,,,,,,,,,,,,,,,,,,,,,,,,,,/muse/elements/blink
2024-11-20 11:48:57.256,1.420072686933824,0.8256798263118721,0.393655094817642,1.175663191980477,0.6874302724660054,0.3525880438944095,0.07359746415128285,1.707973675716566,0.6666809220797285,0.6910196557784479,0.6359224271570741,1.750883000774767,0.8385760070101007,0.6859928908293483,0.9195409513968131,0.928289876081015,0.2105657857334167,0.6864844586311868,0.629622189296045,0.4178735697920464,1626.227106227106,817.1428571428571,808.6813186813187,840.5128205128206,1201.135531135531,-0.371643,0.070679,0.846008,0.149536,-5.121613,0.740204,1,4,1,1,2,75.000000
2024-11-20 11:48:57.884,,,,,,,,,,,,,,,,,,,,,,,,,,,,,,,,,,,,,,/muse/elements/blink
2024-11-20 11:48:58.256,1.420072686933824,0.677906276010519,0.3859145167532264,1.175663191980477,0.6874302724660054,0.3381753042451569,0.01458323723372539,1.707973675716566,0.6666809220797285,0.2489044164050044,0.6748472174322396,1.750883000774767,0.8385760070101007,0.7436259026889849,0.88827988081689,0.928289876081015,0.2105657857334167,0.6108352948659598,0.6284820308174398,0.4178735697920464,917.4725274725275,804.2490842490843,803.040293040293,773.2234432234433,925.934065934066,-0.484009,0.058716,0.958313,6.878662,1.211243,-3.970184,1,4,1,1,2,75.000000
2024-11-20 11:48:58.500,,,,,,,,,,,,,,,,,,,,,,,,,,,,,,,,,,,,,,/muse/elements/blink
2024-11-20 11:48:59.255,1.420072686933824,0.6624093855441942,0.5044259733830279,1.175663191980477,0.6874302724660054,0.469631577469754,0.1379862845280748,1.707973675716566,0.6666809220797285,0.3622630479120478,0.4743655196266686,1.750883000774767,0.8385760070101007,0.8813550692068681,0.946119874077153,0.928289876081015,0.2105657857334167,0.7088142377037757,0.6690465329624551,0.4178735697920464,0,786.9230769230769,816.7399267399268,819.96336996337,151.5018315018315,-0.354614,0.024170,0.857300,5.398254,-4.246826,-0.426178,1,4,1,1,2,75.000000
2024-11-20 11:48:59.260,,,,,,,,,,,,,,,,,,,,,,,,,,,,,,,,,,,,,,/muse/elements/blink
2024-11-20 11:48:59.956,,,,,,,,,,,,,,,,,,,,,,,,,,,,,,,,,,,,,,/muse/elements/blink
2024-11-20 11:49:00.256,1.420072686933824,0.8778264934580781,0.4965763127493793,1.177031026980341,0.6874302724660054,0.4488640567611831,0.08789760738752087,1.943962667368939,0.6666809220797285,0.8320720604944059,0.4788804796348974,2.120484699987244,0.8385760070101007,0.9662406164886844,0.9805771888827198,1.297193087226894,0.2105657857334167,0.880703248525992,0.5791069094387427,0.786351927412998,890.4761904761905,807.4725274725275,802.2344322344322,782.4908424908425,857.8388278388279,-0.463989,0.116089,0.964050,-0.314026,-1.233673,8.785248,1,4,1,1,1,75.000000
2024-11-20 11:49:00.552,,,,,,,,,,,,,,,,,,,,,,,,,,,,,,,,,,,,,,/muse/elements/blink
2024-11-20 11:49:01.255,1.420072686933824,1.025016996693675,0.7005997465511338,1.110878975652944,0.6874302724660054,0.4528724363870375,0.3938855228542053,1.935905576993411,0.6666809220797285,0.8254023340301161,0.5702091653839724,2.120484699987244,0.8385760070101007,0.9819037781950021,0.9284981987502139,1.331724494399692,0.2105657857334167,0.9240522607035484,0.7298373931030986,0.8313242538805992,844.1391941391942,807.4725274725275,803.8461538461539,794.5787545787546,883.6263736263736,-0.400940,0.069885,0.839294,0.216827,-5.854340,4.463654,1,4,1,1,1,75.000000
2024-11-20 11:49:01.264,,,,,,,,,,,,,,,,,,,,,,,,,,,,,,,,,,,,,,/muse/elements/blink
2024-11-20 11:49:01.900,,,,,,,,,,,,,,,,,,,,,,,,,,,,,,,,,,,,,,/muse/elements/blink
2024-11-20 11:49:02.267,1.420072686933824,0.8053589634016313,0.7549093163848397,1.110878975652944,0.6874302724660054,0.3341299513449077,0.5035538055183036,1.935905576993411,0.6666809220797285,0.5662311227926291,0.5702091653839724,2.120484699987244,0.8385760070101007,0.8244342353003199,0.8593392364156719,1.331724494399692,0.2105657857334167,0.6274947607273258,0.8031930009717564,0.8313242538805992,1054.871794871795,794.1758241758242,821.1721611721612,783.6996336996338,1194.285714285714,-0.504456,0.014160,1.025330,3.730927,-5.802002,-8.568420,1,4,1,1,1,75.000000
2024-11-20 11:49:02.475,,,,,,,,,,,,,,,,,,,,,,,,,,,,,,,,,,,,,,/muse/elements/blink
2024-11-20 11:49:03.179,,,,,,,,,,,,,,,,,,,,,,,,,,,,,,,,,,,,,,/muse/elements/blink
2024-11-20 11:49:03.256,1.420072686933824,0.6987051088001229,0.7549093163848397,1.110878975652944,0.6874302724660054,0.4513532129848796,0.5035538055183036,1.935905576993411,0.6666809220797285,0.6114882301827668,0.5702091653839724,2.120484699987244,0.8385760070101007,0.7595867478625624,0.8593392364156719,1.331724494399692,0.2105657857334167,0.645692429783139,0.8031930009717564,0.8313242538805992,1626.227106227106,801.8315018315019,791.3553113553114,848.5714285714286,1490.842490842491,-0.345703,0.022827,0.817017,3.663635,-3.484192,-3.902893,1,4,1,1,2,85.000000
2024-11-20 11:49:03.887,,,,,,,,,,,,,,,,,,,,,,,,,,,,,,,,,,,,,,/muse/elements/blink
2024-11-20 11:49:04.256,1.420072686933824,0.6854195579488614,1.132041150374874,1.110878975652944,0.6874302724660054,0.818238310875643,0.8002764503495136,1.935905576993411,0.6666809220797285,0.4175854994220628,0.8708480057212971,2.120484699987244,0.8385760070101007,0.7196508954173227,0.8253203807985496,1.331724494399692,0.2105657857334167,0.6226768715544974,0.7300108509803519,0.8313242538805992,1458.205128205128,804.6520146520147,797.3992673992674,802.6373626373627,752.6739926739926,-0.437805,0.114563,0.950867,3.147736,-0.837402,5.652466,1,4,1,1,2,85.000000
2024-11-20 11:49:05.212,,,,,,,,,,,,,,,,,,,,,,,,,,,,,,,,,,,,,,/muse/elements/blink
2024-11-20 11:49:05.256,1.420072686933824,0.8439987581077344,0.8795166226005869,1.110878975652944,0.6874302724660054,0.7231600220993055,0.6716849913357574,1.935905576993411,0.6666809220797285,0.4576986174297019,0.856579219783543,2.120484699987244,0.8385760070101007,0.5793333293059103,0.6646333583133772,1.331724494399692,0.2105657857334167,0.3079261347548372,0.4792318538860116,0.8313242538805992,0,802.6373626373627,808.6813186813187,788.5347985347986,651.5384615384615,-0.388489,0.109802,0.900696,5.861816,-9.203949,0.284119,1,4,1,1,2,85.000000
2024-11-20 11:49:06.059,,,,,,,,,,,,,,,,,,,,,,,,,,,,,,,,,,,,,,/muse/elements/blink
2024-11-20 11:49:06.256,1.420072686933824,1.092636906532179,0.6743224618832547,1.55564047124733,0.6874302724660054,0.6168352598030048,0.3946721339382523,1.777683916585923,0.6666809220797285,0.3235460285518039,0.4628700450156067,1.760641179187923,0.8385760070101007,0.4260381526533381,0.6152906820374244,0.8752570230095817,0.2105657857334167,0.2500653038505886,0.3928330047406511,0.3503977016785516,44.72527472527473,809.4871794871796,817.1428571428571,784.1025641025641,734.1391941391942,-0.444031,0.040405,0.921265,5.450592,-6.826324,-7.790833,1,4,1,1,1,85.000000
2024-11-20 11:49:06.572,,,,,,,,,,,,,,,,,,,,,,,,,,,,,,,,,,,,,,/muse/elements/blink
2024-11-20 11:49:07.173,,,,,,,,,,,,,,,,,,,,,,,,,,,,,,,,,,,,,,/muse/elements/blink
2024-11-20 11:49:07.255,1.420072686933824,1.085622284795662,0.6743224618832547,1.394185082377823,0.6874302724660054,0.6040524219251756,0.3946721339382523,1.641619749018912,0.6666809220797285,0.3235460285518039,0.4628700450156067,1.545514703666864,0.8385760070101007,0.4586763353772322,0.6152906820374244,0.8180237545834522,0.2105657857334167,0.2235631739169154,0.3928330047406511,0.4140879925462704,567.7289377289377,790.1465201465202,807.0695970695971,769.5970695970697,642.2710622710623,-0.364990,0.054626,0.822937,6.684265,-9.615173,1.480408,1,4,1,1,1,85.000000
2024-11-20 11:49:07.875,,,,,,,,,,,,,,,,,,,,,,,,,,,,,,,,,,,,,,/muse/elements/blink
2024-11-20 11:49:08.256,1.420072686933824,0.9231594353970245,0.6743224618832547,1.27274395837168,0.6874302724660054,0.5992826871988313,0.3946721339382523,1.524856835021041,0.6666809220797285,0.3833793362284874,0.4628700450156067,1.508630699541137,0.8385760070101007,0.515288051339352,0.6152906820374244,0.8761855847313155,0.2105657857334167,0.06505908032199613,0.3928330047406511,0.437392579179321,1315.164835164835,807.0695970695971,804.2490842490843,829.2307692307693,1111.684981684982,-0.456177,0.103638,1.067139,3.633728,-0.261688,6.990814,1,4,1,1,1,85.000000
2024-11-20 11:49:08.505,,,,,,,,,,,,,,,,,,,,,,,,,,,,,,,,,,,,,,/muse/elements/blink
2024-11-20 11:49:09.086,,,,,,,,,,,,,,,,,,,,,,,,,,,,,,,,,,,,,,/muse/elements/blink
2024-11-20 11:49:09.256,1.420072686933824,1.031698366437289,0.7002821987732598,1.27274395837168,0.6874302724660054,0.6506356352156595,0.3034517961906548,1.524856835021041,0.6666809220797285,0.6511084969109149,0.4771309298684224,1.508630699541137,0.8385760070101007,0.5570725294729585,0.723826089574392,0.8761855847313155,0.2105657857334167,0.3617775520186007,0.6040360928923947,0.437392579179321,1626.630036630037,801.4285714285714,801.4285714285714,824.3956043956044,1099.59706959707,-0.381958,0.098511,0.829224,-2.100983,-0.560760,0.560760,1,4,1,1,2,85.000000
2024-11-20 11:49:09.311,,,,,,,,,,,,,,,,,,,,,,,,,,,,,,,,,,,,,,/muse/elements/blink
2024-11-20 11:49:09.807,,,,,,,,,,,,,,,,,,,,,,,,,,,,,,,,,,,,,,/muse/elements/blink
2024-11-20 11:49:10.265,1.420072686933824,0.9022511947294722,0.8501836925234527,1.27274395837168,0.6874302724660054,0.4332759856510703,0.5891316840736465,1.524856835021041,0.6666809220797285,0.5505607423597553,0.6434441176587183,1.508630699541137,0.8385760070101007,0.5329094246135753,0.8095682106719011,0.8761855847313155,0.2105657857334167,0.4450637692020412,0.4750596974519603,0.437392579179321,199.4505494505495,812.3076923076924,810.6959706959707,841.7216117216118,255.8608058608059,-0.440002,0.144592,1.030029,8.202057,0.396271,-3.319702,1,4,1,1,2,85.000000
2024-11-20 11:49:10.412,,,,,,,,,,,,,,,,,,,,,,,,,,,,,,,,,,,,,,/muse/elements/blink
2024-11-20 11:49:11.035,,,,,,,,,,,,,,,,,,,,,,,,,,,,,,,,,,,,,,/muse/elements/blink
2024-11-20 11:49:11.195,,,,,,,,,,,,,,,,,,,,,,,,,,,,,,,,,,,,,,/muse/elements/blink
2024-11-20 11:49:11.256,1.420072686933824,0.8515080999004114,0.9287348314751506,1.27274395837168,0.6874302724660054,0.6737504955113682,0.6816435603242343,1.524856835021041,0.6666809220797285,0.5971637536845769,0.5661811738599581,1.508630699541137,0.8385760070101007,0.8099254397865283,0.8933226321651386,0.8761855847313155,0.2105657857334167,0.5634887208068375,0.3917543276031231,0.437392579179321,0,801.8315018315019,811.5018315018315,775.2380952380953,0,-0.388977,0.033936,0.788208,4.844971,-1.510315,1.704712,1,4,1,1,2,85.000000
2024-11-20 11:49:11.735,,,,,,,,,,,,,,,,,,,,,,,,,,,,,,,,,,,,,,/muse/elements/blink
2024-11-20 11:49:12.255,1.420072686933824,0.8679439321437403,0.9287348314751506,1.27274395837168,0.6874302724660054,0.7952743598908532,0.6816435603242343,1.524856835021041,0.6666809220797285,0.5352286061890397,0.5661811738599581,1.508630699541137,0.8385760070101007,0.7668741099785739,0.8933226321651386,0.8761855847313155,0.2105657857334167,0.4848110456721122,0.3917543276031231,0.437392579179321,1156.410256410256,781.2820512820513,798.2051282051282,844.5421245421246,902.1611721611722,-0.474731,0.009583,1.119019,2.856140,7.245026,4.822540,1,4,1,1,2,85.000000
2024-11-20 11:49:12.340,,,,,,,,,,,,,,,,,,,,,,,,,,,,,,,,,,,,,,/muse/elements/blink
2024-11-20 11:49:12.524,,,,,,,,,,,,,,,,,,,,,,,,,,,,,,,,,,,,,,/muse/elements/blink
2024-11-20 11:49:13.020,,,,,,,,,,,,,,,,,,,,,,,,,,,,,,,,,,,,,,/muse/elements/blink
2024-11-20 11:49:13.256,1.420072686933824,0.9330321419967461,0.2734832992668455,1.27274395837168,0.6874302724660054,0.8006672662332545,0.2560934858420186,1.524856835021041,0.6666809220797285,0.6923924456986759,0.398608669410918,1.508630699541137,0.8385760070101007,0.5768102555923322,0.9723872994051211,0.8761855847313155,0.2105657857334167,0.4167648802620337,0.8368438047639377,0.437392579179321,849.3772893772895,803.040293040293,809.0842490842491,804.2490842490843,1057.289377289377,-0.363525,0.130676,0.838440,2.699127,-0.979462,5.869293,1,4,1,1,2,80.000000
2024-11-20 11:49:13.984,,,,,,,,,,,,,,,,,,,,,,,,,,,,,,,,,,,,,,/muse/elements/blink
2024-11-20 11:49:14.256,,,,,,,,,,,,,,,,,,,,,,,,,,,,,,,,,,,,,,/muse/elements/blink
2024-11-20 11:49:14.266,1.420072686933824,0.7964349000522896,0.4978932474105688,1.27274395837168,0.6874302724660054,0.6325958478875546,0.06205686602348796,1.524856835021041,0.6666809220797285,0.7698313125231722,0.5017608979258594,1.508630699541137,0.8385760070101007,0.4859485132106705,0.8350201856172191,0.8761855847313155,0.2105657857334167,0.3639236148380286,0.729003553471643,0.437392579179321,1622.600732600733,800.6227106227107,812.3076923076924,806.2637362637363,1398.571428571429,-0.379578,0.125793,0.958374,3.229980,-5.734711,-1.914062,1,4,1,1,2,80.000000
2024-11-20 11:49:15.255,1.420072686933824,1.037741270164868,0.4595671957577868,1.27274395837168,0.6874302724660054,0.8976683813994778,0.1039519980085919,1.524856835021041,0.6666809220797285,0.7650254007740906,0.4390727926329876,1.508630699541137,0.8385760070101007,0.5106486409225406,0.8433145955069772,0.8761855847313155,0.2105657857334167,0.4272245689134918,0.7014311517197618,0.437392579179321,764.7619047619048,811.0989010989011,796.5934065934066,815.1282051282052,808.2783882783883,-0.465820,0.004211,0.951721,8.045044,-3.379517,-4.112244,1,4,1,1,2,80.000000
2024-11-20 11:49:15.366,,,,,,,,,,,,,,,,,,,,,,,,,,,,,,,,,,,,,,/muse/elements/blink
2024-11-20 11:49:16.256,1.420072686933824,1.087408720662711,0.3439567525198207,1.27274395837168,0.6874302724660054,0.8297371133494692,0.125833745732838,1.524856835021041,0.6666809220797285,0.5625397336078444,0.5202028337709185,1.508630699541137,0.8385760070101007,0.3624951591708564,0.5986583349466713,0.8761855847313155,0.2105657857334167,0.4593864726262759,0.5403247000097926,0.437392579179321,1149.96336996337,797.8021978021978,794.5787545787546,832.0512820512821,331.6117216117216,-0.336914,0.018677,0.769531,7.641296,-1.809387,1.114044,1,4,1,1,2,80.000000
2024-11-20 11:49:16.305,,,,,,,,,,,,,,,,,,,,,,,,,,,,,,,,,,,,,,/muse/elements/blink
2024-11-20 11:49:16.769,,,,,,,,,,,,,,,,,,,,,,,,,,,,,,,,,,,,,,/muse/elements/blink
2024-11-20 11:49:17.269,1.420072686933824,1.119087965715383,0.2750309620139871,1.586920082128234,0.6874302724660054,0.7526939285010389,0.06749075214839766,1.97904367470448,0.6666809220797285,0.7101956057153028,0.7971070781627149,2.066441822376087,0.8385760070101007,0.6095188603071255,0.917750790320866,1.294118391941447,0.2105657857334167,0.4094520859979121,0.7199953287785881,0.6099547873386005,486.3369963369964,853.8095238095239,847.3626373626374,600.3663003663004,1142.710622710623,-0.498352,0.062683,0.941345,5.914154,-4.089813,5.383301,1,4,1,1,1,80.000000
2024-11-20 11:49:17.348,,,,,,,,,,,,,,,,,,,,,,,,,,,,,,,,,,,,,,/muse/elements/blink
2024-11-20 11:49:18.148,,,,,,,,,,,,,,,,,,,,,,,,,,,,,,,,,,,,,,/muse/elements/blink
2024-11-20 11:49:18.256,1.420072686933824,1.139797120657553,0.6793267905557921,1.702134729675242,0.6874302724660054,0.6595847008393397,0.3946306037880976,1.919113813053155,0.6666809220797285,0.5803113629903287,0.695892342309094,1.984322952212893,0.8385760070101007,0.6886100475883172,0.8905040597345332,1.314329729587226,0.2105657857334167,0.08285589283516699,0.7497351691635591,0.6834869116969199,934.7985347985348,781.2820512820513,786.5201465201466,732.1245421245421,1015.787545787546,-0.362000,0.074707,0.875061,-0.381317,-8.889923,0.620575,1,4,1,1,1,80.000000
2024-11-20 11:49:18.799,,,,,,,,,,,,,,,,,,,,,,,,,,,,,,,,,,,,,,/muse/elements/blink
2024-11-20 11:49:19.256,1.420072686933824,1.139797120657553,0.4512466175774065,1.702134729675242,0.6874302724660054,0.6595847008393397,0.06681990905888172,1.919113813053155,0.6666809220797285,0.5803113629903287,0.5076988092424608,1.984322952212893,0.8385760070101007,0.6886100475883172,0.9594535182918259,1.314329729587226,0.2105657857334167,0.08285589283516699,0.7350732443360235,0.6834869116969199,1036.739926739927,797.3992673992674,801.8315018315019,854.6153846153846,1085.091575091575,-0.342163,0.086121,0.943787,-0.052338,5.443115,-0.829926,1,4,1,1,2,80.000000
2024-11-20 11:49:19.377,,,,,,,,,,,,,,,,,,,,,,,,,,,,,,,,,,,,,,/muse/elements/blink
2024-11-20 11:49:20.264,1.420072686933824,0.8819326964869981,0.4240189997724512,1.702134729675242,0.6874302724660054,0.4429504005881559,0.1763273481805906,1.919113813053155,0.6666809220797285,0.3473125378828905,0.6762403655128285,1.984322952212893,0.8385760070101007,0.6997788160530427,0.9549886328084025,1.314329729587226,0.2105657857334167,0.5594211806471546,0.669484482291723,0.6834869116969199,1276.483516483516,800.6227106227107,786.1172161172161,834.8717948717949,1031.904761904762,-0.406128,0.001526,0.840881,4.979553,-0.112152,-1.398163,1,4,1,1,2,80.000000
2024-11-20 11:49:21.006,,,,,,,,,,,,,,,,,,,,,,,,,,,,,,,,,,,,,,/muse/elements/blink
2024-11-20 11:49:21.255,1.420072686933824,0.7441734778991186,0.4539354246558233,1.724618618773437,0.6874302724660054,0.3967781482705628,0.4272870479937494,1.543235341416272,0.6666809220797285,0.3599704529058275,0.6546842293982528,1.609402440077298,0.8385760070101007,0.6820973091376499,0.7090151938181315,1.188634454852521,0.2105657857334167,0.51690918086905,0.528422882777265,0.2927953876800115,1046.410256410256,788.9377289377289,799.0109890109891,844.5421245421246,550.4029304029305,-0.385681,-0.012695,0.941589,0.463562,5.151520,4.949646,1,4,1,1,1,80.000000
2024-11-20 11:49:21.388,,,,,,,,,,,,,,,,,,,,,,,,,,,,,,,,,,,,,,/muse/elements/blink
2024-11-20 11:49:21.788,,,,,,,,,,,,,,,,,,,,,,,,,,,,,,,,,,,,,,/muse/elements/blink
2024-11-20 11:49:22.255,1.420072686933824,0.6828307223713774,0.6048598691353767,1.724618618773437,0.6874302724660054,-0.09016672163772592,0.3193547030337711,1.543235341416272,0.6666809220797285,-0.09977102771305266,0.7135768252846032,1.609402440077298,0.8385760070101007,0.4913736487892906,0.7375970909916638,1.188634454852521,0.2105657857334167,0.3012600602187937,0.4289171608855216,0.2927953876800115,397.2893772893773,780.8791208791209,818.3516483516484,797.8021978021978,224.4322344322345,-0.383789,0.108459,0.836914,1.712189,2.549591,5.353394,1,4,1,1,1,80.000000
2024-11-20 11:49:22.700,,,,,,,,,,,,,,,,,,,,,,,,,,,,,,,,,,,,,,/muse/elements/blink
2024-11-20 11:49:23.255,1.420072686933824,0.6828307223713774,0.618897174027305,1.724618618773437,0.6874302724660054,-0.09016672163772592,0.2710378500219614,1.543235341416272,0.6666809220797285,-0.09977102771305266,0.6374684649569009,1.609402440077298,0.8385760070101007,0.4913736487892906,0.7818107429955947,1.188634454852521,0.2105657857334167,0.3012600602187937,0.2078211282895109,0.2927953876800115,510.5128205128206,803.040293040293,792.1611721611722,767.985347985348,703.1135531135532,-0.396545,0.141418,0.966492,5.936584,-3.484192,-7.895508,1,4,1,1,2,85.000000
2024-11-20 11:49:23.300,,,,,,,,,,,,,,,,,,,,,,,,,,,,,,,,,,,,,,/muse/elements/blink
2024-11-20 11:49:23.905,,,,,,,,,,,,,,,,,,,,,,,,,,,,,,,,,,,,,,/muse/elements/blink
2024-11-20 11:49:24.237,,,,,,,,,,,,,,,,,,,,,,,,,,,,,,,,,,,,,,/muse/elements/blink
2024-11-20 11:49:24.256,1.420072686933824,1.052011145867278,0.9111201520536362,1.724618618773437,0.6874302724660054,0.9919980636236798,0.7571744553681889,1.543235341416272,0.6666809220797285,1.003839748805683,0.7325595002525064,1.609402440077298,0.8385760070101007,0.7682290075907979,0.7189208582404811,1.188634454852521,0.2105657857334167,0.8069962705507738,0.6729818139943046,0.2927953876800115,127.3260073260073,796.5934065934066,790.5494505494506,745.4212454212454,932.3809523809524,-0.403748,-0.009766,0.967102,-1.884155,-6.295471,-7.155304,1,4,1,1,2,85.000000
2024-11-20 11:49:24.505,,,,,,,,,,,,,,,,,,,,,,,,,,,,,,,,,,,,,,/muse/elements/blink
2024-11-20 11:49:25.236,,,,,,,,,,,,,,,,,,,,,,,,,,,,,,,,,,,,,,/muse/elements/blink
2024-11-20 11:49:25.256,1.420072686933824,0.8333550698792487,0.9843770719324384,1.724618618773437,0.6874302724660054,0.7273743906287813,0.840344549599681,1.543235341416272,0.6666809220797285,0.9642771882107998,0.9041665707658458,1.609402440077298,0.8385760070101007,0.8287432061475855,0.703976887557807,1.188634454852521,0.2105657857334167,0.7639009156093236,0.6539964148560033,0.2927953876800115,1501.318681318681,783.2967032967033,810.2930402930403,810.6959706959707,1142.307692307692,-0.382202,0.018799,0.899048,11.955414,-8.164673,-14.362946,1,4,1,1,2,85.000000
2024-11-20 11:49:25.857,,,,,,,,,,,,,,,,,,,,,,,,,,,,,,,,,,,,,,/muse/elements/blink
2024-11-20 11:49:26.256,1.420072686933824,0.9934510420252997,1.026495411171892,1.724618618773437,0.6874302724660054,0.8533843597084052,0.9421797896216952,1.543235341416272,0.6666809220797285,0.9409477754174629,0.8855923157593985,1.609402440077298,0.8385760070101007,0.8846197475763845,0.6365972647839955,1.188634454852521,0.2105657857334167,0.7073828781033401,0.6441352756823522,0.2927953876800115,918.2783882783883,817.948717948718,794.981684981685,823.1868131868132,570.5494505494505,-0.481079,0.125549,1.052185,3.558960,5.779572,-0.321503,1,4,1,1,2,85.000000
2024-11-20 11:49:26.532,,,,,,,,,,,,,,,,,,,,,,,,,,,,,,,,,,,,,,/muse/elements/blink
2024-11-20 11:49:27.256,1.420072686933824,0.9934510420252997,1.026495411171892,1.724618618773437,0.6874302724660054,0.8533843597084052,0.9421797896216952,1.543235341416272,0.6666809220797285,0.9409477754174629,0.8855923157593985,1.609402440077298,0.8385760070101007,0.8846197475763845,0.6365972647839955,1.188634454852521,0.2105657857334167,0.7073828781033401,0.6441352756823522,0.2927953876800115,0.4029304029304029,816.7399267399268,786.1172161172161,771.6117216117216,669.6703296703297,-0.334595,0.078186,0.953430,6.811371,-9.226379,-11.544189,1,4,1,1,2,85.000000
2024-11-20 11:49:28.255,1.420072686933824,0.9934510420252997,1.026495411171892,1.524257823532964,0.6874302724660054,0.8533843597084052,0.9421797896216952,1.580485569168564,0.6666809220797285,0.9409477754174629,0.8855923157593985,1.259716785859918,0.8385760070101007,0.8846197475763845,0.6365972647839955,1.280049120834429,0.2105657857334167,0.7073828781033401,0.6441352756823522,1.03939332119511,750.6593406593407,848.974358974359,761.1355311355312,745.8241758241759,785.7142857142858,-0.297791,0.013123,0.926575,13.787231,-9.921722,-29.361420,1,4,1,1,1,85.000000
2024-11-20 11:49:29.261,1.420072686933824,0.9934510420252997,1.026495411171892,1.352022788437567,0.6874302724660054,0.8533843597084052,0.9421797896216952,1.402801460284994,0.6666809220797285,0.9409477754174629,0.8855923157593985,1.38441731971534,0.8385760070101007,0.8846197475763845,0.6365972647839955,1.422908704947411,0.2105657857334167,0.7073828781033401,0.6441352756823522,0.9731797535972068,1424.358974358974,805.8608058608058,803.040293040293,814.3223443223443,985.5677655677656,-0.354919,0.064880,0.971558,-3.499146,1.054230,10.549774,1,4,1,1,1,85.000000
2024-11-20 11:49:29.996,,,,,,,,,,,,,,,,,,,,,,,,,,,,,,,,,,,,,,/muse/elements/blink
2024-11-20 11:49:30.255,1.420072686933824,0.9934510420252997,1.026495411171892,1.499774008541461,0.6874302724660054,0.8533843597084052,0.9421797896216952,1.024360802737845,0.6666809220797285,0.9409477754174629,0.8855923157593985,1.390747165092327,0.8385760070101007,0.8846197475763845,0.6365972647839955,1.299576446521972,0.2105657857334167,0.7073828781033401,0.6441352756823522,0.9167531303445313,778.8644688644689,798.6080586080586,789.3406593406594,796.996336996337,626.959706959707,-0.364624,0.049988,0.963074,1.271057,1.166382,12.232056,1,4,1,1,1,85.000000
