TimeStamp,Delta_TP9,Delta_AF7,Delta_AF8,Delta_TP10,Theta_TP9,Theta_AF7,Theta_AF8,Theta_TP10,Alpha_TP9,Alpha_AF7,Alpha_AF8,Alpha_TP10,Beta_TP9,Beta_AF7,Beta_AF8,Beta_TP10,Gamma_TP9,Gamma_AF7,Gamma_AF8,Gamma_TP10,RAW_TP9,RAW_AF7,RAW_AF8,RAW_TP10,AUX_RIGHT,Accelerometer_X,Accelerometer_Y,Accelerometer_Z,Gyro_X,Gyro_Y,Gyro_Z,HeadBandOn,HSI_TP9,HSI_AF7,HSI_AF8,HSI_TP10,Battery,Elements
2024-11-24 12:53:54.221,,,,,,,,,,,,,,,,,,,,,,,,,,,,,,,,,,,,,,/muse/event/connected Muse-D2D3
2024-11-24 12:53:54.281,,,,,,,,,,,,,,,,,,,,,,,,,,,,,,,,,,,,,,/muse/elements/blink
2024-11-24 12:53:54.721,0.6466645971996096,-0.0288582415086608,0.5271744398351687,1.368452334983929,1.086841941480666,-0.2121740147106038,0.04883518443174991,1.434807865544905,1.396893460882299,0.3396126119675146,0.2644175804664971,1.733434997134207,0.6681783943544274,0.05885937961740751,0.001133040389082345,0.9740484837396132,0.2352622828002111,-0.2799548077376348,-0.4212018902658844,0.3611387762523238,854.6153846153846,768.3882783882784,800.2197802197802,917.8754578754579,707.948717948718,-0.189514,0.138489,0.987366,1.899109,-0.343933,-0.867310,1,1,1,1,1,65.000000
2024-11-24 12:53:54.884,,,,,,,,,,,,,,,,,,,,,,,,,,,,,,,,,,,,,,/muse/elements/blink
2024-11-24 12:53:55.228,0.7753144077071813,0.1084474732536058,0.62193951011802,1.586402849712708,1.309610102884941,-0.232077277442315,0.1213109977546538,1.680369439093974,1.396893460882299,0.3217608624203737,0.264662718418039,1.733434997134207,0.7480097831339367,0.0953687028456061,0.06898999219969,1.126379036860118,0.3572162355194112,-0.3097922429680319,-0.3583253101849448,0.4128956439310976,796.5934065934066,800.2197802197802,801.4285714285714,854.2124542124542,840.9157509157509,-0.200012,0.145813,0.983093,2.257996,-0.829926,1.121521,1,1,1,1,1,60.000000
2024-11-24 12:53:55.722,0.7753144077071813,-0.0124774573785799,0.5719814777299285,1.586402849712708,1.309610102884941,-0.4769667857490342,0.07772027578561859,1.680369439093974,1.396893460882299,0.1505761171753558,0.2693908192222786,1.733434997134207,0.7480097831339367,0.1429140589819918,0.04860994145279682,1.126379036860118,0.3572162355194112,-0.415674503856079,-0.2983219860907569,0.4128956439310976,778.8644688644689,807.0695970695971,803.040293040293,833.2600732600733,635.4212454212454,-0.188477,0.146545,0.990723,0.650482,6.945953,3.155212,1,1,1,1,1,60.000000
2024-11-24 12:53:56.222,0.7753144077071813,0.02755847271768305,0.3672369875245007,1.586402849712708,1.309610102884941,-0.07172937129725007,0.04101716174570966,1.680369439093974,1.396893460882299,-0.1812569460559954,0.2879572584920355,1.733434997134207,0.7480097831339367,0.0748672358325812,0.01860589425428352,1.126379036860118,0.3572162355194112,-0.09521271524050191,-0.2570490525601538,0.4128956439310976,817.5457875457876,805.4578754578755,807.0695970695971,784.5054945054945,645.4945054945055,-0.199951,0.134277,0.983337,2.340240,-2.392578,2.736511,1,1,1,1,1,60.000000
2024-11-24 12:53:56.729,1.313255881013276,0.06993339922760873,0.3080744339677361,1.586402849712708,1.275788324845725,-0.003991139515852792,0.02889986812682234,1.680369439093974,1.042964397365005,0.01219928133759033,0.2069980343626036,1.733434997134207,0.6076894948339854,0.02021879106841255,-0.01827917044888098,1.126379036860118,0.2469996467028361,-0.1227486296317574,-0.2809741645789182,0.4128956439310976,794.5787545787546,805.0549450549451,805.0549450549451,795.3846153846154,774.4322344322345,-0.219177,0.146057,0.987122,2.138367,-0.732727,-0.119629,1,1,1,1,1,60.000000
2024-11-24 12:53:57.228,1.275582456859882,0.1675877718002747,0.8437266341797099,1.586402849712708,1.088794734470417,-0.02438287016756453,0.3778516402535696,1.680369439093974,1.128297898779177,0.02669729161240656,0.2528029932456826,1.733434997134207,0.5689085186604385,0.01452702697224915,-0.006744823110831624,1.126379036860118,0.1850261529686947,-0.1457081391275681,-0.2888214294667211,0.4128956439310976,780.4761904761905,799.4139194139194,794.981684981685,761.941391941392,619.7069597069598,-0.233948,0.144348,0.980957,3.095398,-0.239258,-0.351410,1,1,1,1,1,60.000000
2024-11-24 12:53:57.722,1.378731666636287,0.09873722096447174,0.9229983964109265,1.586402849712708,0.82850411422556,-0.1044127755279796,0.4038816858940667,1.680369439093974,1.103426191419587,-0.004555646203523952,0.2618284900551371,1.733434997134207,0.5180000370578297,-0.03763101682380356,0.0906093385933609,1.126379036860118,0.1397871289499266,-0.1777652664927102,-0.2622309531065773,0.4128956439310976,806.6666666666667,812.7106227106227,799.8168498168499,796.996336996337,732.9304029304029,-0.235596,0.146912,0.977356,2.803802,-2.833710,0.231781,1,1,1,1,1,60.000000
2024-11-24 12:53:58.224,1.316171210998312,0.1096378514341398,1.014339846046172,1.586402849712708,0.4931502121667567,-0.1562856815670955,0.3951490279034263,1.680369439093974,0.9112894560814229,0.07802620139939306,0.4716943302018667,1.733434997134207,0.5993434433896495,0.08194729953057503,0.1100201438686658,1.126379036860118,0.1708763430391007,-0.276783795984414,-0.3126915473598633,0.4128956439310976,776.8498168498169,798.6080586080586,801.4285714285714,765.9706959706959,714.3956043956044,-0.208557,0.153442,0.982361,2.287903,-4.052429,-0.306549,1,1,1,1,1,60.000000
2024-11-24 12:53:58.722,1.246195185049388,0.4158017062720711,0.8477503107640292,1.586402849712708,0.4991654155989161,0.04971296069174416,0.2224882091658679,1.680369439093974,1.07483366519153,0.08782633523910992,0.472873517839668,1.733434997134207,0.7338333145676116,0.1245405332909149,0.1071374137326071,1.126379036860118,0.2644411187187881,-0.3502595896448468,-0.3564968559706063,0.4128956439310976,799.8168498168499,809.4871794871796,808.2783882783883,756.3003663003664,758.3150183150184,-0.193054,0.183960,0.981384,2.542114,-4.583282,3.028107,1,1,1,1,1,60.000000
2024-11-24 12:53:59.221,0.9307007537672672,0.4699151450000923,0.7173938117032291,1.586402849712708,0.4246537553482545,0.1052001018033404,0.07332691618521676,1.680369439093974,1.183912065817215,0.229872870127409,0.5059318533928675,1.733434997134207,0.9003208327192896,0.2207960048393862,0.09993784532238785,1.126379036860118,0.2934987951801757,-0.4612615816218834,-0.2461292327171561,0.4128956439310976,753.0769230769231,806.2637362637363,797.3992673992674,833.6630036630037,850.5860805860806,-0.268738,0.108276,0.947754,4.059906,1.031799,-6.826324,1,1,1,1,1,60.000000
2024-11-24 12:53:59.623,,,,,,,,,,,,,,,,,,,,,,,,,,,,,,,,,,,,,,/muse/elements/blink
2024-11-24 12:53:59.726,0.6148508116759529,0.4922733886126904,0.5061931231642495,1.586402849712708,0.4157728997222188,0.2235760711131241,0.04988037869738132,1.680369439093974,1.183912065817215,0.1762093743243824,0.4334144410022712,1.733434997134207,0.9717719576741961,0.161132251862676,0.1122516607780636,1.126379036860118,0.3364614718965072,-0.3790396505766417,-0.1218367112384535,0.4128956439310976,932.3809523809524,805.4578754578755,805.4578754578755,828.021978021978,1620.989010989011,-0.249268,0.196533,0.967163,-6.931000,-15.581665,-6.826324,1,1,1,1,1,60.000000
2024-11-24 12:54:00.222,0.4865863743759161,0.5305836105401703,0.3677876309430434,1.586402849712708,0.1478799602160701,0.2598876826333659,0.2249477145560597,1.680369439093974,1.105466361083599,0.4522367290786699,0.5271505874751659,1.733434997134207,1.027873026964045,0.1462247214640454,0.06893899514935312,1.126379036860118,0.2127060276798386,-0.3575653055720208,-0.03400193382803707,0.4128956439310976,674.9084249084249,801.8315018315019,797.3992673992674,814.7252747252747,0,-0.232605,0.205383,1.177002,1.570129,2.235565,1.390686,1,1,1,1,1,60.000000
2024-11-24 12:54:00.373,,,,,,,,,,,,,,,,,,,,,,,,,,,,,,,,,,,,,,/muse/elements/blink
2024-11-24 12:54:00.722,0.4865863743759161,0.6237666788135939,0.688514897602316,1.586402849712708,0.1478799602160701,0.3799398262135161,0.4933876476106169,1.680369439093974,1.105466361083599,0.538359872207013,0.4950626694818393,1.733434997134207,1.027873026964045,0.01991786019193626,0.05820984942491636,1.126379036860118,0.2127060276798386,-0.3553982126833413,-0.101038523807682,0.4128956439310976,895.3113553113553,809.0842490842491,796.1904761904763,939.6336996336996,321.1355311355312,-0.222778,0.092468,0.871765,9.114227,-5.869293,4.441223,1,1,1,1,1,60.000000
2024-11-24 12:54:00.846,,,,,,,,,,,,,,,,,,,,,,,,,,,,,,,,,,,,,,/muse/elements/blink
2024-11-24 12:54:01.081,,,,,,,,,,,,,,,,,,,,,,,,,,,,,,,,,,,,,,/muse/elements/blink
2024-11-24 12:54:01.231,0.4865863743759161,0.7032887676054578,0.7458372042109601,1.586402849712708,0.1478799602160701,0.3433967804861473,0.5379023583385391,1.680369439093974,1.105466361083599,0.538359872207013,0.4924595775813487,1.733434997134207,1.027873026964045,0.003922567961444084,0.05018626291274996,1.126379036860118,0.2127060276798386,-0.5004084624124996,-0.09958955582620906,0.4128956439310976,713.5897435897436,802.2344322344322,803.040293040293,846.959706959707,648.7179487179487,-0.193848,0.176331,0.855591,2.183228,-7.731018,-0.814972,1,1,1,1,4,60.000000
2024-11-24 12:54:01.674,,,,,,,,,,,,,,,,,,,,,,,,,,,,,,,,,,,,,,/muse/elements/blink
2024-11-24 12:54:01.721,0.4865863743759161,0.6753891051349192,0.7803334989998322,1.586402849712708,0.1478799602160701,0.2465721254198172,0.5148259207290278,1.680369439093974,1.105466361083599,0.5016844094996241,0.4583331366073129,1.733434997134207,1.027873026964045,-0.09628449894427102,0.0371075402917232,1.126379036860118,0.2127060276798386,-0.4822735191675123,-0.193415195684681,0.4128956439310976,927.1428571428572,806.6666666666667,801.8315018315019,910.6227106227107,1626.630036630037,-0.247925,0.102539,1.006042,-0.456085,-3.364563,0.590668,1,1,1,1,4,60.000000
2024-11-24 12:54:01.978,,,,,,,,,,,,,,,,,,,,,,,,,,,,,,,,,,,,,,/muse/elements/blink
2024-11-24 12:54:02.192,,,,,,,,,,,,,,,,,,,,,,,,,,,,,,,,,,,,,,/muse/elements/blink
2024-11-24 12:54:02.227,0.4865863743759161,0.8475403720650592,0.7673169883559127,1.586402849712708,0.1478799602160701,0.2624425945304102,0.6666769720242257,1.680369439093974,1.105466361083599,0.4310134349867682,0.6858695656883872,1.733434997134207,1.027873026964045,0.02056624418954704,0.1703749713489079,1.126379036860118,0.2127060276798386,-0.4427166067415514,-0.2120033900058477,0.4128956439310976,1024.652014652015,796.996336996337,811.5018315018315,993.6263736263736,880,-0.195618,0.220459,1.080139,-2.579498,-3.386993,-2.504730,1,2,1,1,4,60.000000
2024-11-24 12:54:02.722,0.4865863743759161,0.9177740960512182,0.7765258037304226,1.586402849712708,0.1478799602160701,0.3323756596759358,0.6751408193247231,1.680369439093974,1.105466361083599,0.4310134349867682,0.7259621943977876,1.733434997134207,1.027873026964045,0.09847642643462977,0.1576972672911415,1.126379036860118,0.2127060276798386,-0.3860096175542319,-0.340791811893715,0.4128956439310976,755.0915750915751,797.8021978021978,808.6813186813187,606.8131868131868,485.1282051282051,-0.198853,0.194580,0.948669,0.949554,2.332764,5.936584,1,2,1,1,4,60.000000
2024-11-24 12:54:02.990,,,,,,,,,,,,,,,,,,,,,,,,,,,,,,,,,,,,,,/muse/elements/blink
2024-11-24 12:54:03.232,0.4865863743759161,0.9902034538431314,0.7411925198606669,1.586402849712708,0.1478799602160701,0.4201108623276466,0.6284373595311556,1.680369439093974,1.105466361083599,0.4303071059888451,0.7212534960431312,1.733434997134207,1.027873026964045,0.1990044217017432,0.1567393198100224,1.126379036860118,0.2127060276798386,-0.3848470979580792,-0.2328699408800962,0.4128956439310976,737.7655677655678,801.4285714285714,793.3699633699634,776.4468864468864,0,-0.169006,0.093689,0.931885,6.340332,-4.426270,-4.336548,1,2,1,1,4,60.000000
2024-11-24 12:54:03.613,,,,,,,,,,,,,,,,,,,,,,,,,,,,,,,,,,,,,,/muse/elements/blink
2024-11-24 12:54:03.722,0.4865863743759161,0.8244799644077679,0.8740821432918148,1.586402849712708,0.1478799602160701,0.3635289085805256,0.3189638617261632,1.680369439093974,1.105466361083599,0.1588496337064269,0.5839270167077756,1.733434997134207,1.027873026964045,0.2444407096394244,0.09061478364003711,1.126379036860118,0.2127060276798386,-0.4415837491174293,-0.1770361409892955,0.4128956439310976,726.8864468864469,811.9047619047619,798.2051282051282,1015.384615384615,397.2893772893773,-0.211121,0.153809,0.819031,0.994415,-3.611298,-3.386993,1,4,1,1,4,60.000000
2024-11-24 12:54:03.803,,,,,,,,,,,,,,,,,,,,,,,,,,,,,,,,,,,,,,/muse/elements/blink
2024-11-24 12:54:04.202,,,,,,,,,,,,,,,,,,,,,,,,,,,,,,,,,,,,,,/muse/elements/blink
2024-11-24 12:54:04.222,0.4865863743759161,0.8244799644077679,0.8856441599869835,1.586402849712708,0.1478799602160701,0.3635289085805256,0.3631460493343955,1.680369439093974,1.105466361083599,0.1588496337064269,0.4470168811172187,1.733434997134207,1.027873026964045,0.2444407096394244,0.1344447432532845,1.126379036860118,0.2127060276798386,-0.4415837491174293,-0.1928146337428869,0.4128956439310976,846.959706959707,802.6373626373627,799.8168498168499,888.8644688644689,1623.809523809524,-0.192139,0.104370,1.022278,-1.330872,7.102966,1.502838,1,2,1,1,4,60.000000
2024-11-24 12:54:04.481,,,,,,,,,,,,,,,,,,,,,,,,,,,,,,,,,,,,,,/muse/elements/blink
2024-11-24 12:54:04.722,0.4865863743759161,0.7211429906101351,0.8497783020806827,1.586402849712708,0.1478799602160701,0.08376635644983241,0.3355576613265187,1.680369439093974,1.105466361083599,0.4306236398482977,0.3952876285802908,1.733434997134207,1.027873026964045,0.0632541304518621,0.1722701885390666,1.126379036860118,0.2127060276798386,-0.03895335231767579,-0.3022189847642917,0.4128956439310976,915.8608058608058,791.3553113553114,821.1721611721612,959.3772893772895,472.6373626373626,-0.062988,0.190613,1.067017,-0.171967,-7.245026,-12.904968,1,4,1,1,4,60.000000
2024-11-24 12:54:04.814,,,,,,,,,,,,,,,,,,,,,,,,,,,,,,,,,,,,,,/muse/elements/blink
2024-11-24 12:54:05.222,0.4865863743759161,0.522629651548992,0.6939596088592945,1.586402849712708,0.1478799602160701,0.007609718141621219,0.2761610286145167,1.680369439093974,1.105466361083599,0.4736064363737982,0.3671436604458247,1.733434997134207,1.027873026964045,0.176553895976964,0.1730802408854829,1.126379036860118,0.2127060276798386,0.1669899226496806,-0.2888952395894246,0.4128956439310976,609.2307692307693,805.8608058608058,796.1904761904763,238.9377289377289,151.9047619047619,-0.161804,0.209412,1.112305,5.383301,7.566528,5.256195,1,4,1,1,4,60.000000
2024-11-24 12:54:05.424,,,,,,,,,,,,,,,,,,,,,,,,,,,,,,,,,,,,,,/muse/elements/blink
2024-11-24 12:54:05.722,0.4865863743759161,0.4705157116193103,0.7082632838694091,1.586402849712708,0.1478799602160701,-0.04646529987092932,0.2666428937787207,1.680369439093974,1.105466361083599,0.4736064363737982,0.2377445562383197,1.733434997134207,1.027873026964045,0.09464432201230549,0.1146006309888456,1.126379036860118,0.2127060276798386,0.04856421921111768,-0.2174208213997088,0.4128956439310976,891.6849816849817,804.6520146520147,801.025641025641,510.9157509157509,751.0622710622711,-0.163635,0.136597,1.090576,2.691650,3.895416,-0.508423,1,4,1,1,4,60.000000
2024-11-24 12:54:06.079,,,,,,,,,,,,,,,,,,,,,,,,,,,,,,,,,,,,,,/muse/elements/blink
2024-11-24 12:54:06.221,0.4865863743759161,0.1572838179760802,0.7021857529003754,1.586402849712708,0.1478799602160701,-0.07001298826621705,0.1902455106897601,1.680369439093974,1.105466361083599,0.2871697591603009,0.04207742599533611,1.733434997134207,1.027873026964045,0.0252331132142399,0.07873087486155932,1.126379036860118,0.2127060276798386,-0.03343115937481121,-0.1487113036687038,0.4128956439310976,782.4908424908425,805.0549450549451,801.8315018315019,705.1282051282052,29.41391941391942,-0.110413,0.187317,0.825195,1.039276,-7.940369,0.986938,1,4,1,1,4,60.000000
2024-11-24 12:54:06.548,,,,,,,,,,,,,,,,,,,,,,,,,,,,,,,,,,,,,,/muse/elements/blink
2024-11-24 12:54:06.722,0.4865863743759161,0.1877808216257666,0.7000246666476616,1.586402849712708,0.1478799602160701,0.04656198520199287,0.2722742017677562,1.680369439093974,1.105466361083599,0.4337958889456814,0.2433468560248173,1.733434997134207,1.027873026964045,-0.1702818715259899,-0.05203380360625381,1.126379036860118,0.2127060276798386,-0.3927235835580706,-0.282504604781742,0.4128956439310976,607.6190476190476,815.1282051282052,778.4615384615385,631.3919413919414,399.3040293040293,-0.181213,0.087646,0.877380,6.833801,-3.970184,4.710388,1,4,1,1,4,60.000000
2024-11-24 12:54:06.945,,,,,,,,,,,,,,,,,,,,,,,,,,,,,,,,,,,,,,/muse/elements/blink
2024-11-24 12:54:07.155,,,,,,,,,,,,,,,,,,,,,,,,,,,,,,,,,,,,,,/muse/elements/blink
2024-11-24 12:54:07.230,0.4865863743759161,0.1261016839704702,0.6370635733145386,1.586402849712708,0.1478799602160701,0.09831281792512626,0.3721030946556263,1.680369439093974,1.105466361083599,0.4472222814084322,0.591624561948384,1.733434997134207,1.027873026964045,-0.1907125123649819,-0.03684973226637159,1.126379036860118,0.2127060276798386,-0.3490640181860595,-0.3247762239846526,0.4128956439310976,716.007326007326,800.2197802197802,803.040293040293,987.5824175824176,959.7802197802198,-0.119568,0.164124,0.775269,-1.457977,-3.095398,4.284210,1,4,1,1,4,60.000000
2024-11-24 12:54:07.552,,,,,,,,,,,,,,,,,,,,,,,,,,,,,,,,,,,,,,/muse/elements/blink
2024-11-24 12:54:07.722,0.4865863743759161,0.4387150140740876,0.9129470749325409,1.586402849712708,0.1478799602160701,0.1381008218751753,0.491920674871496,1.680369439093974,1.105466361083599,0.5472634594729379,0.6312708402625922,1.733434997134207,1.027873026964045,-0.1519095235652679,0.04745130371811033,1.126379036860118,0.2127060276798386,-0.2922765947915531,-0.4136859527746733,0.4128956439310976,1146.336996336996,801.8315018315019,807.8754578754579,1243.040293040293,1626.630036630037,-0.041687,0.091125,1.210693,-1.704712,-6.938477,-17.585449,1,4,1,1,4,60.000000
2024-11-24 12:54:07.786,,,,,,,,,,,,,,,,,,,,,,,,,,,,,,,,,,,,,,/muse/elements/blink
2024-11-24 12:54:08.222,0.4865863743759161,0.6882385452163011,0.9739365907736525,1.586402849712708,0.1478799602160701,0.1465793627974295,0.5484486376051898,1.680369439093974,1.105466361083599,0.5526177250121768,0.6512449157550626,1.733434997134207,1.027873026964045,0.01920791363406884,0.1979610606802581,1.126379036860118,0.2127060276798386,-0.2274863739815143,-0.3707735055095619,0.4128956439310976,885.6410256410256,801.025641025641,810.6959706959707,1103.223443223443,875.5677655677656,-0.034912,0.173645,1.016663,-5.076752,-14.146118,2.878571,1,4,1,1,4,60.000000
2024-11-24 12:54:08.682,,,,,,,,,,,,,,,,,,,,,,,,,,,,,,,,,,,,,,/muse/elements/blink
2024-11-24 12:54:08.722,0.4865863743759161,0.9078060394344865,1.137638414557093,1.586402849712708,0.1478799602160701,0.444136730167469,0.8021162286005322,1.680369439093974,1.105466361083599,0.7001102203034058,1.004543017150052,1.733434997134207,1.027873026964045,0.1853662147247984,0.3577914166660022,1.126379036860118,0.2127060276798386,-0.1922197903993973,-0.4777341699939976,0.4128956439310976,624.9450549450549,801.8315018315019,813.1135531135532,466.5934065934066,110,0.028809,0.292725,1.074646,10.280609,-1.555176,27.439880,1,2,1,1,2,60.000000
2024-11-24 12:54:09.193,,,,,,,,,,,,,,,,,,,,,,,,,,,,,,,,,,,,,,/muse/elements/blink
2024-11-24 12:54:09.227,0.4865863743759161,0.8957575357823219,1.051903952654479,1.586402849712708,0.1478799602160701,0.4904652656911435,0.8018701314896817,1.680369439093974,1.105466361083599,0.7001102203034058,1.004543017150052,1.733434997134207,1.027873026964045,0.1980225305511855,0.3698149568589574,1.126379036860118,0.2127060276798386,-0.1741392971013021,-0.4966233793186062,0.4128956439310976,1025.860805860806,793.3699633699634,806.6666666666667,343.6996336996337,1625.824175824176,-0.064209,0.310303,1.078491,7.162781,-33.226929,-8.732910,1,4,1,1,4,60.000000
2024-11-24 12:54:09.501,,,,,,,,,,,,,,,,,,,,,,,,,,,,,,,,,,,,,,/muse/elements/blink
2024-11-24 12:54:09.722,0.4865863743759161,0.9834591998860489,1.015848573005171,1.586402849712708,0.1478799602160701,0.710531415160246,0.8368397959270742,1.680369439093974,1.105466361083599,0.8237095266728458,1.004543017150052,1.733434997134207,1.027873026964045,0.1738151466156602,0.3697635835512713,1.126379036860118,0.2127060276798386,-0.1754222426882664,-0.4492800400194431,0.4128956439310976,1232.564102564103,767.985347985348,753.0769230769231,1388.901098901099,1626.630036630037,0.096680,0.017944,1.055054,6.355286,9.129181,-4.329071,1,4,1,1,4,60.000000
2024-11-24 12:54:09.782,,,,,,,,,,,,,,,,,,,,,,,,,,,,,,,,,,,,,,/muse/elements/blink
2024-11-24 12:54:09.975,,,,,,,,,,,,,,,,,,,,,,,,,,,,,,,,,,,,,,/muse/elements/blink
2024-11-24 12:54:10.222,0.4865863743759161,0.9416278754906251,0.7173964069520651,1.586402849712708,0.1478799602160701,0.7065012648257782,0.5570705487983106,1.680369439093974,1.105466361083599,0.7998350831618017,0.7518786376285073,1.733434997134207,1.027873026964045,0.06329694974468478,0.2799831116845935,1.126379036860118,0.2127060276798386,-0.185737922738541,-0.3607941582828514,0.4128956439310976,582.2344322344322,807.4725274725275,814.3223443223443,800.2197802197802,0,-0.194092,0.135010,1.083923,1.495361,18.968658,-2.856140,1,4,1,1,4,60.000000
2024-11-24 12:54:10.394,,,,,,,,,,,,,,,,,,,,,,,,,,,,,,,,,,,,,,/muse/elements/blink
2024-11-24 12:54:10.722,0.4865863743759161,1.076196162342799,0.6170280062227846,1.586402849712708,0.1478799602160701,0.8663643608850315,0.5797881390285818,1.680369439093974,1.105466361083599,0.7998350831618017,0.4787680871375076,1.733434997134207,1.027873026964045,0.146339561271602,0.2878164643159232,1.126379036860118,0.2127060276798386,-0.1488407761315791,-0.2349959822315413,0.4128956439310976,954.1391941391942,810.6959706959707,790.952380952381,551.6117216117216,1180.989010989011,-0.112183,0.254456,1.035217,-1.577606,2.646790,4.545898,1,4,1,1,2,60.000000
2024-11-24 12:54:11.023,,,,,,,,,,,,,,,,,,,,,,,,,,,,,,,,,,,,,,/muse/elements/blink
2024-11-24 12:54:11.221,0.4865863743759161,0.5837629938061959,0.519578566728981,1.586402849712708,0.1478799602160701,0.2106727217539039,0.1825166340431185,1.680369439093974,1.105466361083599,0.1752510039549507,0.2029499445914816,1.733434997134207,1.027873026964045,-0.0396749242806018,0.09610922024500254,1.126379036860118,0.2127060276798386,0.02214935448584011,-0.02478559577934973,0.4128956439310976,893.2967032967033,807.0695970695971,800.6227106227107,626.1538461538462,284.4688644688645,-0.156738,0.071899,0.928711,12.665710,5.697327,-0.261688,1,4,1,1,4,60.000000
2024-11-24 12:54:11.329,,,,,,,,,,,,,,,,,,,,,,,,,,,,,,,,,,,,,,/muse/elements/blink
2024-11-24 12:54:11.638,,,,,,,,,,,,,,,,,,,,,,,,,,,,,,,,,,,,,,/muse/elements/blink
2024-11-24 12:54:11.723,0.4865863743759161,0.5384339752687486,0.710641831509197,1.586402849712708,0.1478799602160701,0.1755294602740555,0.1980242417821124,1.680369439093974,1.105466361083599,0.175901993361939,0.2489580498597387,1.733434997134207,1.027873026964045,-0.05535615270479589,0.03936869736890029,1.126379036860118,0.2127060276798386,0.003464403444261241,-0.1214540197933965,0.4128956439310976,571.3553113553114,792.967032967033,787.3260073260074,810.2930402930403,0,-0.158386,0.180298,0.775269,-1.338348,-1.884155,0.553284,1,4,1,1,4,60.000000
2024-11-24 12:54:12.132,,,,,,,,,,,,,,,,,,,,,,,,,,,,,,,,,,,,,,/muse/elements/blink
2024-11-24 12:54:12.221,0.4865863743759161,0.5384339752687486,0.8995400176192605,1.586402849712708,0.1478799602160701,0.1755294602740555,0.4157743034382219,1.680369439093974,1.105466361083599,0.175901993361939,0.4235658793301015,1.733434997134207,1.027873026964045,-0.05535615270479589,0.133517717157055,1.126379036860118,0.2127060276798386,0.003464403444261241,-0.1611576616185164,0.4128956439310976,633.4065934065934,790.952380952381,805.8608058608058,920.6959706959707,955.3479853479854,-0.076355,0.104187,0.754883,9.301147,6.093597,6.729126,1,4,1,1,4,60.000000
2024-11-24 12:54:12.722,0.4865863743759161,0.5742625127641421,0.8984842931857782,1.586402849712708,0.1478799602160701,0.3435210755278603,0.4164129703576741,1.680369439093974,1.105466361083599,0.4940684175431641,0.3822308141169536,1.733434997134207,1.027873026964045,-0.04423583850433591,0.1380594422131231,1.126379036860118,0.2127060276798386,-0.163325682084749,-0.2331759698340143,0.4128956439310976,717.6190476190476,788.5347985347986,808.6813186813187,907.8021978021978,1454.175824175824,-0.092102,0.211548,0.878601,4.269257,2.325287,-5.600128,1,4,1,1,4,60.000000
2024-11-24 12:54:13.221,0.4865863743759161,0.8036628678769026,0.8842992796474164,1.586402849712708,0.1478799602160701,0.4484763433470114,0.4908871021369904,1.680369439093974,1.105466361083599,0.5419094223328766,0.3859195203512051,1.733434997134207,1.027873026964045,-0.01421475928085677,0.1853972858027595,1.126379036860118,0.2127060276798386,-0.5377179416320633,-0.3274975401380117,0.4128956439310976,935.6043956043957,809.0842490842491,803.4432234432235,1012.161172161172,1626.630036630037,-0.129883,0.123962,1.109009,1.024323,3.775787,12.949829,1,4,1,1,4,60.000000
2024-11-24 12:54:13.273,,,,,,,,,,,,,,,,,,,,,,,,,,,,,,,,,,,,,,/muse/elements/blink
2024-11-24 12:54:13.721,0.4865863743759161,0.6823994620721766,0.6034993146844735,1.586402849712708,0.1478799602160701,0.3609370165303771,0.3048741381885523,1.680369439093974,1.105466361083599,0.5655020627298665,0.4038351983149852,1.733434997134207,1.027873026964045,0.1584407431512307,0.1127240119953307,1.126379036860118,0.2127060276798386,-0.3471575083021175,-0.3859086639907507,0.4128956439310976,834.4688644688645,800.6227106227107,805.4578754578755,396.4835164835165,1.611721611721612,-0.078125,0.284729,1.281860,-2.923431,-14.617157,-9.076843,1,4,1,1,2,60.000000
2024-11-24 12:54:13.870,,,,,,,,,,,,,,,,,,,,,,,,,,,,,,,,,,,,,,/muse/elements/blink
2024-11-24 12:54:14.084,,,,,,,,,,,,,,,,,,,,,,,,,,,,,,,,,,,,,,/muse/elements/blink
2024-11-24 12:54:14.221,0.4865863743759161,0.6289025292508422,0.6384222516766677,1.586402849712708,0.1478799602160701,0.2946484170540737,0.274754894095428,1.680369439093974,1.105466361083599,0.5199329904931448,0.42573619933955,1.733434997134207,1.027873026964045,0.1752970273741453,0.128781741505215,1.126379036860118,0.2127060276798386,-0.3115579157574309,-0.4319501898409801,0.4128956439310976,670.4761904761905,800.6227106227107,803.4432234432235,847.7655677655678,265.9340659340659,-0.255493,0.230896,1.306702,0.082245,9.854431,-2.123413,1,4,1,1,4,60.000000
2024-11-24 12:54:14.533,,,,,,,,,,,,,,,,,,,,,,,,,,,,,,,,,,,,,,/muse/elements/blink
2024-11-24 12:54:14.657,,,,,,,,,,,,,,,,,,,,,,,,,,,,,,,,,,,,,,/muse/elements/blink
2024-11-24 12:54:14.721,0.4865863743759161,0.4159568536085493,0.6108438303435128,1.586402849712708,0.1478799602160701,0.2081348059820479,0.1934680577301324,1.680369439093974,1.105466361083599,0.4052198075624415,0.5085490520941867,1.733434997134207,1.027873026964045,0.277093054482349,0.1235489474274829,1.126379036860118,0.2127060276798386,-0.2178762006153063,-0.4302255399577516,0.4128956439310976,1015.384615384615,783.2967032967033,819.5604395604396,703.1135531135532,1166.080586080586,-0.204102,0.106445,0.994934,8.157196,-11.125488,2.257996,1,4,1,1,4,60.000000
2024-11-24 12:54:15.221,0.4865863743759161,0.5862002114586775,0.5686973057482841,1.586402849712708,0.1478799602160701,0.4208503082114487,0.1575191986271486,1.680369439093974,1.105466361083599,0.4054069360200588,0.4635467708298964,1.733434997134207,1.027873026964045,0.03193109647233176,0.1283668788744776,1.126379036860118,0.2127060276798386,-0.09568712868040531,-0.3423130655282589,0.4128956439310976,347.3260073260074,801.025641025641,801.8315018315019,595.1282051282052,0,-0.122681,0.204407,0.908691,1.054230,-9.405823,-0.530853,1,4,1,1,4,60.000000
2024-11-24 12:54:15.400,,,,,,,,,,,,,,,,,,,,,,,,,,,,,,,,,,,,,,/muse/elements/blink
2024-11-24 12:54:15.724,0.4865863743759161,0.5532492681468361,0.4924427179707883,1.586402849712708,0.1478799602160701,0.3813067077445177,0.3524188983465161,1.680369439093974,1.105466361083599,0.3189305117202257,0.4076963855971761,1.733434997134207,1.027873026964045,0.02880185432973681,0.1598407110861202,1.126379036860118,0.2127060276798386,-0.03876325856853872,-0.3213820915283602,0.4128956439310976,585.4578754578755,791.3553113553114,818.7545787545788,637.032967032967,1363.113553113553,-0.129700,0.078430,0.927795,4.463654,-12.060089,7.215118,1,4,1,1,4,60.000000
2024-11-24 12:54:15.898,,,,,,,,,,,,,,,,,,,,,,,,,,,,,,,,,,,,,,/muse/elements/blink
2024-11-24 12:54:16.204,,,,,,,,,,,,,,,,,,,,,,,,,,,,,,,,,,,,,,/muse/elements/blink
2024-11-24 12:54:16.221,0.4865863743759161,0.417057598659164,0.4729389946421602,1.586402849712708,0.1478799602160701,0.2094316981083167,0.3192160361786617,1.680369439093974,1.105466361083599,0.3283700765671206,0.4317215171699244,1.733434997134207,1.027873026964045,0.01356811264830046,0.1901410519747079,1.126379036860118,0.2127060276798386,-0.0859909023327894,-0.2997310867588435,0.4128956439310976,812.3076923076924,794.981684981685,806.6666666666667,1037.142857142857,1626.630036630037,-0.010925,0.234436,1.109985,9.009552,-3.895416,-9.876862,1,4,1,1,4,60.000000
2024-11-24 12:54:16.507,,,,,,,,,,,,,,,,,,,,,,,,,,,,,,,,,,,,,,/muse/elements/blink
2024-11-24 12:54:16.733,0.4865863743759161,0.5587312309180591,0.614083347856807,1.586402849712708,0.1478799602160701,0.2263108419554256,0.3525868960944773,1.680369439093974,1.105466361083599,0.3371066294217083,0.4364966205207463,1.733434997134207,1.027873026964045,0.00334116891684311,0.2168358902990127,1.126379036860118,0.2127060276798386,-0.1616605902845087,-0.2957843209857487,0.4128956439310976,1342.967032967033,805.8608058608058,805.4578754578755,1271.245421245421,1626.630036630037,-0.073914,0.030945,1.052124,-0.919647,-0.314026,13.772278,1,4,1,1,4,60.000000
2024-11-24 12:54:16.884,,,,,,,,,,,,,,,,,,,,,,,,,,,,,,,,,,,,,,/muse/elements/blink
2024-11-24 12:54:17.221,0.4865863743759161,0.629341177425907,0.5872399994849217,1.586402849712708,0.1478799602160701,0.1258726671372323,0.3274222204863967,1.680369439093974,1.105466361083599,0.1616825148392117,0.4765503455678733,1.733434997134207,1.027873026964045,-0.01273611802192033,0.1963593713486197,1.126379036860118,0.2127060276798386,-0.2187861499216744,-0.2884122538775883,0.4128956439310976,260.2930402930403,799.0109890109891,800.2197802197802,446.4468864468865,0,-0.130676,0.189148,1.447144,2.826233,9.846954,-4.493561,1,4,1,1,4,60.000000
2024-11-24 12:54:17.431,,,,,,,,,,,,,,,,,,,,,,,,,,,,,,,,,,,,,,/muse/elements/blink
2024-11-24 12:54:17.618,,,,,,,,,,,,,,,,,,,,,,,,,,,,,,,,,,,,,,/muse/elements/blink
2024-11-24 12:54:17.725,0.4865863743759161,0.6062898227116277,0.527799716435896,1.586402849712708,0.1478799602160701,0.1082754149213592,0.3120332069985781,1.680369439093974,1.105466361083599,0.1822236065199614,0.4606846757599193,1.733434997134207,1.027873026964045,-0.01671352685390877,0.1632522198023638,1.126379036860118,0.2127060276798386,-0.2507674032889099,-0.191170663265328,0.4128956439310976,717.2161172161173,805.0549450549451,814.3223443223443,703.919413919414,771.2087912087912,-0.106995,0.205139,1.061646,-2.018738,1.899109,1.241150,1,4,1,1,4,60.000000
2024-11-24 12:54:18.222,0.4865863743759161,0.4521180884838401,0.5414916279089776,1.586402849712708,0.1478799602160701,0.08243974444243017,0.2304240050331884,1.680369439093974,1.105466361083599,0.15678689742517,0.4809849640540512,1.733434997134207,1.027873026964045,0.03603967515775326,0.149076092081046,1.126379036860118,0.2127060276798386,-0.1374437225930386,-0.1156551928979361,0.4128956439310976,883.2234432234433,783.2967032967033,815.1282051282052,498.021978021978,2.014652014652015,-0.164246,0.093506,1.072510,11.140442,-10.123596,-2.766418,1,4,1,1,4,60.000000
2024-11-24 12:54:18.323,,,,,,,,,,,,,,,,,,,,,,,,,,,,,,,,,,,,,,/muse/elements/blink
2024-11-24 12:54:18.722,0.4865863743759161,0.3773683938320319,0.8940535289936434,1.586402849712708,0.1478799602160701,0.2596907153945664,0.2159560163189249,1.680369439093974,1.105466361083599,0.4672528133810502,0.5861924496987938,1.733434997134207,1.027873026964045,0.1727245639240061,0.1249389798540169,1.126379036860118,0.2127060276798386,0.04462225210057794,-0.088456989699623,0.4128956439310976,636.6300366300367,794.1758241758242,809.4871794871796,788.5347985347986,278.8278388278388,-0.133911,0.171936,0.800537,1.719666,-4.523468,-4.299164,1,4,1,1,4,60.000000
2024-11-24 12:54:18.941,,,,,,,,,,,,,,,,,,,,,,,,,,,,,,,,,,,,,,/muse/elements/blink
2024-11-24 12:54:19.111,,,,,,,,,,,,,,,,,,,,,,,,,,,,,,,,,,,,,,/muse/elements/blink
2024-11-24 12:54:19.222,0.4865863743759161,0.3853292709342246,1.037740630237795,1.586402849712708,0.1478799602160701,0.3948410179841116,0.3968116672124757,1.680369439093974,1.105466361083599,0.4992675293423829,0.6656398383216156,1.733434997134207,1.027873026964045,0.224556700328071,0.1516980873532275,1.126379036860118,0.2127060276798386,0.06250494088242506,-0.1168442219775416,0.4128956439310976,660,797.3992673992674,792.967032967033,1000.47619047619,1454.981684981685,-0.063232,0.063599,0.772339,6.093597,2.385101,7.805786,1,4,1,1,4,60.000000
2024-11-24 12:54:19.722,0.4865863743759161,0.3720674757470151,1.021106219051621,1.586402849712708,0.1478799602160701,0.3740648972293467,0.5366991550607739,1.680369439093974,1.105466361083599,0.4844499803019804,0.6620391064966512,1.733434997134207,1.027873026964045,0.2009785258453011,0.1362065140647128,1.126379036860118,0.2127060276798386,0.02029002872601191,-0.1924306946730371,0.4128956439310976,757.1062271062272,782.893772893773,801.025641025641,958.5714285714286,1626.227106227106,-0.125366,0.197083,0.834229,-2.519684,7.865601,-5.054321,1,4,1,1,4,60.000000
2024-11-24 12:54:20.222,0.4865863743759161,0.3402133356169881,0.8370075074103963,1.586402849712708,0.1478799602160701,0.4329831659734407,0.4754770573286448,1.680369439093974,1.105466361083599,0.4161926262272563,0.7050360390854498,1.733434997134207,1.027873026964045,0.0691390066612266,0.1109791234762008,1.126379036860118,0.2127060276798386,-0.1310288889002667,-0.2839439941538496,0.4128956439310976,987.5824175824176,788.9377289377289,793.7728937728938,1212.820512820513,1626.630036630037,-0.176453,0.023315,1.129395,-3.902893,7.132874,-0.725250,1,4,1,1,4,60.000000
2024-11-24 12:54:20.722,0.4865863743759161,0.4662502935061341,0.6390455730030267,1.586402849712708,0.1478799602160701,0.3593714085683214,0.2851491140516493,1.680369439093974,1.105466361083599,0.2592212906966134,0.6565267137131642,1.733434997134207,1.027873026964045,0.03370758783392563,0.02671854497154657,1.126379036860118,0.2127060276798386,-0.183119011610605,-0.328272237221587,0.4128956439310976,1348.205128205128,797.3992673992674,792.967032967033,1359.487179487179,1608.901098901099,-0.012085,0.249207,0.996033,0.680389,-15.820923,-4.351501,1,4,1,1,4,60.000000
2024-11-24 12:54:21.193,,,,,,,,,,,,,,,,,,,,,,,,,,,,,,,,,,,,,,/muse/elements/blink
2024-11-24 12:54:21.229,0.4865863743759161,0.5989935072075441,0.5943438462123919,1.586402849712708,0.1478799602160701,0.3259689628493901,0.1734560028251136,1.680369439093974,1.105466361083599,0.2537189224677038,0.661419086272889,1.733434997134207,1.027873026964045,0.03446718436706654,0.03373143279117438,1.126379036860118,0.2127060276798386,-0.2253660049921998,-0.3854059033950585,0.4128956439310976,1004.505494505495,787.7289377289378,800.2197802197802,805.4578754578755,664.0293040293041,-0.164368,0.099426,1.264587,5.211334,-8.904877,1.525269,1,4,1,1,4,60.000000
2024-11-24 12:54:21.362,,,,,,,,,,,,,,,,,,,,,,,,,,,,,,,,,,,,,,/muse/elements/blink
2024-11-24 12:54:21.729,0.4865863743759161,0.4745906183446105,0.7066930286718152,1.586402849712708,0.1478799602160701,-0.007135432222134869,0.3483493572305597,1.680369439093974,1.105466361083599,0.1354193163791289,0.4906397289197555,1.733434997134207,1.027873026964045,0.1760080618042417,0.07146486655459325,1.126379036860118,0.2127060276798386,-0.2109877538225976,-0.3723467357729812,0.4128956439310976,492.3809523809524,798.6080586080586,801.025641025641,460.5494505494506,0,-0.197998,0.155212,1.159973,3.499146,-3.962708,-7.783356,1,4,1,1,4,60.000000
2024-11-24 12:54:22.201,,,,,,,,,,,,,,,,,,,,,,,,,,,,,,,,,,,,,,/muse/elements/blink
2024-11-24 12:54:22.222,0.4865863743759161,0.3916694269101751,0.7385657234374563,1.586402849712708,0.1478799602160701,0.07318511606935511,0.5453796275695113,1.680369439093974,1.105466361083599,0.3483543742688221,0.7922288866052363,1.733434997134207,1.027873026964045,0.1594566270307234,0.1822242200640429,1.126379036860118,0.2127060276798386,-0.211282543047302,-0.3745708183640972,0.4128956439310976,1053.260073260073,812.3076923076924,809.8901098901099,790.952380952381,3.223443223443224,-0.110596,0.191589,0.979370,-0.224304,-4.463654,1.054230,1,4,1,1,4,60.000000
2024-11-24 12:54:22.722,0.4865863743759161,0.4729561353593875,0.9803677097762521,1.586402849712708,0.1478799602160701,0.3656552086278145,0.8273358149065626,1.680369439093974,1.105466361083599,0.6455462660454168,0.9056240794877838,1.733434997134207,1.027873026964045,0.2066132916482731,0.3022337776404851,1.126379036860118,0.2127060276798386,-0.183291499018679,-0.3564152479790924,0.4128956439310976,392.4542124542124,798.2051282051282,793.3699633699634,504.0659340659341,0,-0.169800,0.051697,0.859863,6.527252,-0.224304,6.310425,1,4,1,1,4,60.000000
2024-11-24 12:54:23.222,0.4865863743759161,0.6139276146327933,1.011245182834255,1.586402849712708,0.1478799602160701,0.5286147263760407,0.937586211668135,1.680369439093974,1.105466361083599,0.6455462660454168,0.887677486914726,1.733434997134207,1.027873026964045,0.04555980822698393,0.380647295548267,1.126379036860118,0.2127060276798386,-0.2506392418170181,-0.3325728433895993,0.4128956439310976,518.1684981684982,795.7875457875458,830.4395604395604,597.5457875457876,0,-0.074829,0.162415,0.801208,3.588867,-8.418884,1.151428,1,4,1,1,4,60.000000
2024-11-24 12:54:23.722,0.4865863743759161,1.149932858753803,1.35516014371918,1.586402849712708,0.1478799602160701,1.018169535963184,1.172022481559552,1.680369439093974,1.105466361083599,0.7075232175070321,0.9931608203985969,1.733434997134207,1.027873026964045,0.139469212915928,0.3381356154970771,1.126379036860118,0.2127060276798386,-0.2074122932610891,-0.2812785847252677,0.4128956439310976,681.3553113553114,798.2051282051282,789.7435897435897,963.0036630036631,1613.333333333333,-0.092407,0.058167,0.863831,7.671204,-8.209534,8.949738,1,4,1,1,4,60.000000
2024-11-24 12:54:23.891,,,,,,,,,,,,,,,,,,,,,,,,,,,,,,,,,,,,,,/muse/elements/blink
2024-11-24 12:54:24.235,0.4865863743759161,1.016841808731549,1.268367451883067,1.586402849712708,0.1478799602160701,0.8242283785084231,0.9131448106667879,1.680369439093974,1.105466361083599,0.5982865652526559,0.7862322260613028,1.733434997134207,1.027873026964045,-0.01323492130153923,0.1094721218332378,1.126379036860118,0.2127060276798386,-0.2766550496563869,-0.51068300024655,0.4128956439310976,1364.725274725275,790.1465201465202,812.3076923076924,1095.567765567765,1626.630036630037,-0.194092,0.243164,0.985046,3.140259,8.202057,-12.807770,1,4,1,1,4,60.000000
2024-11-24 12:54:24.524,,,,,,,,,,,,,,,,,,,,,,,,,,,,,,,,,,,,,,/muse/elements/blink
2024-11-24 12:54:24.722,0.4865863743759161,1.097659433885194,1.247004715266479,1.586402849712708,0.1478799602160701,0.8029973964077911,0.8461085818446177,1.680369439093974,1.105466361083599,0.5982865652526559,0.7875642080960377,1.733434997134207,1.027873026964045,0.07549546431942422,0.2044138656362841,1.126379036860118,0.2127060276798386,-0.3027710646889286,-0.4979122479681987,0.4128956439310976,929.5604395604396,792.5641025641025,792.967032967033,949.7069597069598,0,-0.185425,0.071167,1.098877,18.452759,-4.987030,-5.375824,1,4,1,1,4,60.000000
2024-11-24 12:54:25.222,0.4865863743759161,1.048867149065652,1.123448509784629,1.586402849712708,0.1478799602160701,0.6040579646923889,0.6732326261253022,1.680369439093974,1.105466361083599,0.4325078773035559,0.7658894952585692,1.733434997134207,1.027873026964045,0.008199460851927937,0.2154174052614228,1.126379036860118,0.2127060276798386,-0.3569980483015433,-0.480516588620468,0.4128956439310976,261.5018315018315,801.4285714285714,777.2527472527473,304.2124542124542,0,-0.272705,0.104004,1.302185,4.351501,-1.801910,-7.357178,1,4,1,1,4,60.000000
2024-11-24 12:54:25.721,0.4865863743759161,1.307758636428763,1.094237714493909,1.586402849712708,0.1478799602160701,1.133397352255123,0.6390532299339474,1.680369439093974,1.105466361083599,0.7886433186935856,0.7493536522231815,1.733434997134207,1.027873026964045,0.08669316607792459,0.2422952878332601,1.126379036860118,0.2127060276798386,-0.3101163440508246,-0.3894162350153518,0.4128956439310976,1007.728937728938,809.4871794871796,797.8021978021978,427.5091575091575,1359.89010989011,-0.207336,0.269165,1.026611,0.628052,-5.316010,13.891907,1,4,1,1,4,60.000000
2024-11-24 12:54:25.949,,,,,,,,,,,,,,,,,,,,,,,,,,,,,,,,,,,,,,/muse/elements/blink
2024-11-24 12:54:26.222,0.4865863743759161,1.300502849184753,1.030773983172824,1.586402849712708,0.1478799602160701,1.254585118609863,0.7321638638147939,1.680369439093974,1.105466361083599,0.8165606313556165,0.79780096856836,1.733434997134207,1.027873026964045,0.09425155880116792,0.2214756054237833,1.126379036860118,0.2127060276798386,-0.3117578524705605,-0.2853741556407626,0.4128956439310976,958.974358974359,805.8608058608058,792.1611721611722,670.8791208791209,0,-0.222046,0.058777,0.801697,5.084229,-1.801910,-0.082245,1,4,1,1,4,60.000000
2024-11-24 12:54:26.350,,,,,,,,,,,,,,,,,,,,,,,,,,,,,,,,,,,,,,/muse/elements/blink
2024-11-24 12:54:26.565,,,,,,,,,,,,,,,,,,,,,,,,,,,,,,,,,,,,,,/muse/elements/blink
2024-11-24 12:54:26.722,0.4865863743759161,1.192897253612011,0.9475382653410155,1.586402849712708,0.1478799602160701,1.19297129980128,0.6869027314871335,1.680369439093974,1.105466361083599,0.8165606313556165,0.6564179540137084,1.733434997134207,1.027873026964045,0.05722423196699897,0.1163028755811277,1.126379036860118,0.2127060276798386,-0.2933080792308627,-0.2694217754248983,0.4128956439310976,279.6336996336996,805.4578754578755,807.0695970695971,679.7435897435897,0,-0.148926,0.177307,0.795105,3.013153,-6.534729,-2.257996,1,4,1,1,4,65.000000
2024-11-24 12:54:27.222,0.4865863743759161,0.874974912427967,1.002087162648446,1.586402849712708,0.1478799602160701,0.9477484255107447,0.6375625418928672,1.680369439093974,1.105466361083599,0.7771592762317757,0.6739810939507522,1.733434997134207,1.027873026964045,0.005298889166391701,0.2067986859018625,1.126379036860118,0.2127060276798386,-0.3549186074569777,-0.2783532614940782,0.4128956439310976,789.3406593406594,803.040293040293,798.6080586080586,993.6263736263736,1626.630036630037,-0.083618,0.069153,0.825623,4.979553,-6.818848,2.489777,1,4,1,1,4,65.000000
2024-11-24 12:54:27.237,,,,,,,,,,,,,,,,,,,,,,,,,,,,,,,,,,,,,,/muse/elements/blink
2024-11-24 12:54:27.722,0.4865863743759161,0.4638324638935848,1.131898663048616,1.586402849712708,0.1478799602160701,0.3068767318804753,0.7068589583401133,1.680369439093974,1.105466361083599,0.6932565573842984,0.7533638748721844,1.733434997134207,1.027873026964045,-0.005193916472490309,0.3011500024498752,1.126379036860118,0.2127060276798386,-0.382777426705961,-0.305036303145755,0.4128956439310976,979.5238095238095,804.2490842490843,807.8754578754579,934.3956043956044,1626.630036630037,-0.167786,0.214966,0.871460,-4.575806,-0.381317,5.540314,1,4,1,1,4,65.000000
2024-11-24 12:54:28.222,0.4865863743759161,0.7211083748663809,1.271328642318376,1.586402849712708,0.1478799602160701,0.6290298167015259,0.7711987440019761,1.680369439093974,1.105466361083599,0.7108756773884535,0.7515820492162074,1.733434997134207,1.027873026964045,0.08463407774113016,0.4365528828763919,1.126379036860118,0.2127060276798386,-0.265519491684415,-0.3037078820187502,0.4128956439310976,1626.227106227106,802.6373626373627,798.2051282051282,1262.380952380953,1626.630036630037,-0.128662,0.126404,1.065796,0.912170,0.059814,13.682556,1,4,1,1,4,65.000000
2024-11-24 12:54:28.277,,,,,,,,,,,,,,,,,,,,,,,,,,,,,,,,,,,,,,/muse/elements/blink
2024-11-24 12:54:28.672,,,,,,,,,,,,,,,,,,,,,,,,,,,,,,,,,,,,,,/muse/elements/blink
2024-11-24 12:54:28.732,0.4865863743759161,0.9883328140157049,1.332425902314848,1.586402849712708,0.1478799602160701,0.8163665050684643,0.960969622419662,1.680369439093974,1.105466361083599,0.868046437049235,0.7416169814926874,1.733434997134207,1.027873026964045,0.09949226100903603,0.5095362875260011,1.126379036860118,0.2127060276798386,-0.2136705842230308,-0.2995179111247162,0.4128956439310976,546.3736263736264,805.0549450549451,812.3076923076924,658.3882783882784,0,-0.218384,0.239502,1.237427,3.678589,0.239258,-9.263763,1,4,1,1,4,65.000000
2024-11-24 12:54:29.222,0.4865863743759161,1.069383893962062,1.332425902314848,1.586402849712708,0.1478799602160701,0.87647722089948,0.960969622419662,1.680369439093974,1.105466361083599,0.7557655088121535,0.7416169814926874,1.733434997134207,1.027873026964045,0.02835703022352467,0.5095362875260011,1.126379036860118,0.2127060276798386,-0.1705243117922194,-0.2995179111247162,0.4128956439310976,801.8315018315019,803.8461538461539,813.919413919414,668.0586080586081,1014.981684981685,-0.176025,0.226379,1.034912,2.497253,0.441132,2.011261,1,4,1,1,4,65.000000
2024-11-24 12:54:29.496,,,,,,,,,,,,,,,,,,,,,,,,,,,,,,,,,,,,,,/muse/elements/blink
2024-11-24 12:54:29.722,0.4865863743759161,1.104417622407044,1.332425902314848,1.586402849712708,0.1478799602160701,0.8410056752475092,0.960969622419662,1.680369439093974,1.105466361083599,0.7557655088121535,0.7416169814926874,1.733434997134207,1.027873026964045,-0.0219232180070732,0.5095362875260011,1.126379036860118,0.2127060276798386,-0.2158969410884635,-0.2995179111247162,0.4128956439310976,685.3846153846154,801.025641025641,799.4139194139194,568.1318681318681,0,-0.147644,0.056763,0.908081,-0.201874,-3.297272,2.086029,1,4,1,1,4,65.000000
2024-11-24 12:54:30.104,,,,,,,,,,,,,,,,,,,,,,,,,,,,,,,,,,,,,,/muse/elements/blink
2024-11-24 12:54:30.222,0.4865863743759161,1.125200999320354,1.022371363457543,1.586402849712708,0.1478799602160701,0.7638119688120915,0.7008054284000934,1.680369439093974,1.105466361083599,0.7481597000447878,0.5357641635649326,1.733434997134207,1.027873026964045,-0.04579219342708712,0.06800589148318456,1.126379036860118,0.2127060276798386,-0.1986842703332087,-0.4285751662078211,0.4128956439310976,296.5567765567766,807.4725274725275,805.8608058608058,650.7326007326008,0,-0.153320,0.177917,0.781372,1.869202,-2.198181,-4.411316,1,4,1,1,4,65.000000
2024-11-24 12:54:30.604,,,,,,,,,,,,,,,,,,,,,,,,,,,,,,,,,,,,,,/muse/elements/blink
2024-11-24 12:54:30.722,0.4865863743759161,0.54872306276744,0.9825474878523969,1.586402849712708,0.1478799602160701,0.1581465419801182,0.8645085873554368,1.680369439093974,1.105466361083599,0.4506657222281847,0.7508994410297021,1.733434997134207,1.027873026964045,0.1400991408347639,0.1730172940768982,1.126379036860118,0.2127060276798386,-0.3152935301181585,-0.4714280664572036,0.4128956439310976,576.5934065934066,800.2197802197802,795.7875457875458,726.0805860805862,919.4871794871796,-0.148010,0.108337,0.777161,11.035767,-7.230072,7.484283,1,4,1,1,4,65.000000
2024-11-24 12:54:31.212,,,,,,,,,,,,,,,,,,,,,,,,,,,,,,,,,,,,,,/muse/elements/blink
2024-11-24 12:54:31.224,0.4865863743759161,0.5562776606774995,0.8608650542461773,1.586402849712708,0.1478799602160701,0.2756002502917313,0.7347116691229186,1.680369439093974,1.105466361083599,0.4799742757733239,0.7508994410297021,1.733434997134207,1.027873026964045,0.1638211917577703,0.1388281696143387,1.126379036860118,0.2127060276798386,-0.3268462177829428,-0.4393162841770101,0.4128956439310976,768.3882783882784,779.2673992673992,788.1318681318681,1096.776556776557,1624.615384615385,-0.074463,0.158813,0.818115,-5.861816,-2.512207,-5.772095,1,4,1,1,4,65.000000
2024-11-24 12:54:31.539,,,,,,,,,,,,,,,,,,,,,,,,,,,,,,,,,,,,,,/muse/elements/blink
2024-11-24 12:54:31.722,0.4865863743759161,0.5551036021415205,1.045406210880363,1.586402849712708,0.1478799602160701,0.2917249709767141,0.8719653965207372,1.680369439093974,1.105466361083599,0.4679203483692393,0.9607992483686559,1.733434997134207,1.027873026964045,0.1664583691336768,0.1409578550429378,1.126379036860118,0.2127060276798386,-0.3240911552924824,-0.385849740311742,0.4128956439310976,1502.930402930403,796.5934065934066,802.2344322344322,1297.838827838828,1626.227106227106,-0.058838,0.099365,1.049011,1.742096,6.392670,5.226288,1,4,1,1,4,65.000000
2024-11-24 12:54:32.140,,,,,,,,,,,,,,,,,,,,,,,,,,,,,,,,,,,,,,/muse/elements/blink
2024-11-24 12:54:32.222,0.4865863743759161,0.5174882605108702,1.08841782322663,1.586402849712708,0.1478799602160701,0.3654004967801745,0.752214254411036,1.680369439093974,1.105466361083599,0.3453102170041364,0.9135413874995494,1.733434997134207,1.027873026964045,0.188409632222442,0.1507403072586629,1.126379036860118,0.2127060276798386,-0.3648866830148774,-0.2810430402346125,0.4128956439310976,1150.3663003663,797.8021978021978,799.4139194139194,1047.216117216117,556.4468864468864,-0.162842,0.255920,1.246399,2.168274,-6.489868,-7.125397,1,4,1,1,4,65.000000
2024-11-24 12:54:32.349,,,,,,,,,,,,,,,,,,,,,,,,,,,,,,,,,,,,,,/muse/elements/blink
2024-11-24 12:54:32.517,,,,,,,,,,,,,,,,,,,,,,,,,,,,,,,,,,,,,,/muse/elements/blink
2024-11-24 12:54:32.722,0.4865863743759161,0.6871755580983191,1.128425135940413,1.586402849712708,0.1478799602160701,0.3048740031704437,0.7509468181765547,1.680369439093974,1.105466361083599,0.4065237933414735,0.9221135629622133,1.733434997134207,1.027873026964045,0.07899357134576183,0.2114420824366167,1.126379036860118,0.2127060276798386,-0.1417616672767492,-0.2844021432034238,0.4128956439310976,610.0366300366301,799.8168498168499,801.025641025641,654.7619047619048,359.4139194139194,-0.176575,0.195557,1.004211,4.059906,6.145935,9.562836,1,4,1,1,4,65.000000
2024-11-24 12:54:33.231,0.4865863743759161,0.6849013326215712,0.9771811541170127,1.586402849712708,0.1478799602160701,0.5211035799244951,0.564326713049019,1.680369439093974,1.105466361083599,0.6106365487161627,0.7805218303080849,1.733434997134207,1.027873026964045,0.04191374151821226,0.2283826258337874,1.126379036860118,0.2127060276798386,-0.1170961328259455,-0.2534791978738183,0.4128956439310976,711.1721611721612,798.6080586080586,805.0549450549451,551.2087912087912,912.2344322344322,-0.266296,0.113892,1.064209,6.841278,-10.108643,1.024323,1,4,1,1,4,65.000000
2024-11-24 12:54:33.265,,,,,,,,,,,,,,,,,,,,,,,,,,,,,,,,,,,,,,/muse/elements/blink
2024-11-24 12:54:33.722,0.4865863743759161,0.6849013326215712,0.9694030096867301,1.586402849712708,0.1478799602160701,0.5211035799244951,0.6668108993221411,1.680369439093974,1.105466361083599,0.6106365487161627,0.7674510848150904,1.733434997134207,1.027873026964045,0.04191374151821226,0.1983525944517686,1.126379036860118,0.2127060276798386,-0.1170961328259455,-0.2428974066933272,0.4128956439310976,881.6117216117217,797.3992673992674,811.9047619047619,864.6886446886447,1.208791208791209,-0.126221,0.165588,0.793213,-0.598145,-6.310425,4.598236,1,4,1,1,4,65.000000
2024-11-24 12:54:34.060,,,,,,,,,,,,,,,,,,,,,,,,,,,,,,,,,,,,,,/muse/elements/blink
2024-11-24 12:54:34.234,0.4865863743759161,0.7180155102766258,1.093339544624604,1.586402849712708,0.1478799602160701,0.5896236127697143,0.8644770391967982,1.680369439093974,1.105466361083599,0.5511131914243855,0.7127665870983559,1.733434997134207,1.027873026964045,0.04866331041755777,0.163514219272941,1.126379036860118,0.2127060276798386,-0.151595586665465,-0.1388412526108585,0.4128956439310976,176.8864468864469,800.2197802197802,799.0109890109891,494.7985347985348,0,-0.143311,0.080444,0.807495,7.020721,-2.564545,1.196289,1,4,1,1,4,65.000000
2024-11-24 12:54:34.687,,,,,,,,,,,,,,,,,,,,,,,,,,,,,,,,,,,,,,/muse/elements/blink
2024-11-24 12:54:34.723,0.4865863743759161,1.063398031751181,1.202381163896557,1.586402849712708,0.1478799602160701,0.6253433683861651,1.021821598534468,1.680369439093974,1.105466361083599,0.6805672888351265,0.6986415295276102,1.733434997134207,1.027873026964045,0.1216627827583357,0.2182272999820603,1.126379036860118,0.2127060276798386,-0.2855304463443046,-0.07176676267141674,0.4128956439310976,791.3553113553114,794.981684981685,800.6227106227107,1085.494505494506,1632.271062271062,-0.125977,0.143799,0.682983,-9.592743,-2.452393,-1.794434,1,4,1,1,4,65.000000
2024-11-24 12:54:35.222,0.4865863743759161,0.8821830226045133,1.202381163896557,1.586402849712708,0.1478799602160701,0.4586429020110315,1.021821598534468,1.680369439093974,1.105466361083599,0.7188169328509344,0.6986415295276102,1.733434997134207,1.027873026964045,0.06410498427326702,0.2182272999820603,1.126379036860118,0.2127060276798386,-0.2862475514911682,-0.07176676267141674,0.4128956439310976,916.2637362637363,800.6227106227107,791.7582417582418,1180.586080586081,1626.630036630037,-0.128113,0.033386,1.122437,-4.194489,-1.614990,2.758942,1,4,1,1,4,65.000000
2024-11-24 12:54:35.579,,,,,,,,,,,,,,,,,,,,,,,,,,,,,,,,,,,,,,/muse/elements/blink
2024-11-24 12:54:35.729,0.4865863743759161,0.7886369711027532,1.135204006353446,1.586402849712708,0.1478799602160701,0.4549602553674584,0.6310924843477083,1.680369439093974,1.105466361083599,0.7225849647235101,0.5942957023982539,1.733434997134207,1.027873026964045,0.05493721586431106,0.06063867714457585,1.126379036860118,0.2127060276798386,-0.3099966283454516,-0.6873771750295719,0.4128956439310976,1515.018315018315,799.0109890109891,802.6373626373627,1053.663003663004,1626.630036630037,-0.047913,0.259827,1.071106,2.624359,-5.802002,-5.929108,1,4,1,1,4,65.000000
2024-11-24 12:54:36.076,,,,,,,,,,,,,,,,,,,,,,,,,,,,,,,,,,,,,,/muse/elements/blink
2024-11-24 12:54:36.222,0.4865863743759161,0.4720965376663404,1.245808203851785,1.586402849712708,0.1478799602160701,0.2814961957057338,0.7424484886029241,1.680369439093974,1.105466361083599,0.4808335967407262,0.6362752215681926,1.733434997134207,1.027873026964045,0.03379321939712012,0.04818052522869765,1.126379036860118,0.2127060276798386,-0.2486302929371142,-0.6745482414011883,0.4128956439310976,647.1062271062272,788.1318681318681,815.5311355311355,836.0805860805862,0,-0.169922,0.185974,1.290771,0.994415,6.639404,-0.224304,1,4,1,1,4,65.000000
2024-11-24 12:54:36.606,,,,,,,,,,,,,,,,,,,,,,,,,,,,,,,,,,,,,,/muse/elements/blink
2024-11-24 12:54:36.732,0.4865863743759161,0.671106389761812,1.280518926159705,1.586402849712708,0.1478799602160701,0.5652760576641647,0.8928533728120031,1.680369439093974,1.105466361083599,0.5623935173665755,0.93394500934131,1.733434997134207,1.027873026964045,0.1634227165014985,0.2072095262454796,1.126379036860118,0.2127060276798386,-0.2279902087832729,-0.6830828343547638,0.4128956439310976,591.0989010989011,811.5018315018315,788.5347985347986,340.8791208791209,0,-0.263184,0.158142,1.173340,4.545898,-0.142059,6.699219,1,4,1,1,4,60.000000
2024-11-24 12:54:36.793,,,,,,,,,,,,,,,,,,,,,,,,,,,,,,,,,,,,,,/muse/elements/blink
2024-11-24 12:54:37.211,,,,,,,,,,,,,,,,,,,,,,,,,,,,,,,,,,,,,,/muse/elements/blink
2024-11-24 12:54:37.224,0.4865863743759161,0.8164004269430353,1.329725432495455,1.586402849712708,0.1478799602160701,0.6385657916749984,1.1080028602253,1.680369439093974,1.105466361083599,0.6436857292446733,0.9905449483085018,1.733434997134207,1.027873026964045,0.2458177443005676,0.3123196307037506,1.126379036860118,0.2127060276798386,-0.1557858616621647,-0.4646772395213339,0.4128956439310976,774.0293040293041,844.1391941391942,837.2893772893773,633.0036630036631,593.5164835164835,-0.192627,0.231018,0.946350,6.646881,-12.822723,1.846771,1,4,1,1,4,60.000000
2024-11-24 12:54:37.537,,,,,,,,,,,,,,,,,,,,,,,,,,,,,,,,,,,,,,/muse/elements/blink
2024-11-24 12:54:37.722,0.4865863743759161,0.8880916973114328,1.264123434102219,1.586402849712708,0.1478799602160701,0.7285858589267229,1.101809174649871,1.680369439093974,1.105466361083599,0.6436857292446733,0.9891008089558621,1.733434997134207,1.027873026964045,0.3312065241037233,0.3420359310613282,1.126379036860118,0.2127060276798386,-0.1902313478158982,-0.4509159640703754,0.4128956439310976,495.6043956043956,804.6520146520147,804.6520146520147,586.2637362637363,538.3150183150183,-0.183411,0.074890,0.831421,4.972076,-8.396454,1.906586,1,4,1,1,4,60.000000
2024-11-24 12:54:38.144,,,,,,,,,,,,,,,,,,,,,,,,,,,,,,,,,,,,,,/muse/elements/blink
2024-11-24 12:54:38.223,0.4865863743759161,1.01305004584984,1.31767192304376,1.586402849712708,0.1478799602160701,0.8874564916912293,1.136684181309974,1.680369439093974,1.105466361083599,0.6436857292446733,0.9676016908369494,1.733434997134207,1.027873026964045,0.4199171874494406,0.3083837722390196,1.126379036860118,0.2127060276798386,-0.1133576826082208,-0.4100168853798432,0.4128956439310976,752.2710622710623,798.2051282051282,803.8461538461539,1265.604395604396,1627.032967032967,-0.097046,0.116150,0.772827,-6.549683,-4.127197,-10.579681,1,4,1,1,4,60.000000
2024-11-24 12:54:38.722,0.4865863743759161,1.01305004584984,0.7389331338908075,1.586402849712708,0.1478799602160701,0.8874564916912293,0.754424830003069,1.680369439093974,1.105466361083599,0.6436857292446733,0.7972391513523245,1.733434997134207,1.027873026964045,0.4199171874494406,0.1359245431683317,1.126379036860118,0.2127060276798386,-0.1133576826082208,-0.3208100257127771,0.4128956439310976,1281.721611721612,796.5934065934066,799.4139194139194,1041.172161172161,1457.399267399268,-0.140991,0.139771,1.073914,7.267456,-14.938660,-0.971985,1,4,1,1,4,60.000000
2024-11-24 12:54:39.035,,,,,,,,,,,,,,,,,,,,,,,,,,,,,,,,,,,,,,/muse/elements/blink
2024-11-24 12:54:39.226,0.4865863743759161,-0.1748669095584882,0.8812012372231012,1.586402849712708,0.1478799602160701,0.04251733956152325,0.5441650635387941,1.680369439093974,1.105466361083599,0.03778120756122739,0.6743584439289403,1.733434997134207,1.027873026964045,0.01129847350072,0.2313322513731439,1.126379036860118,0.2127060276798386,-0.6028634606947701,-0.3554145119250144,0.4128956439310976,1007.326007326007,808.2783882783883,803.4432234432235,707.948717948718,0,-0.272461,0.253967,1.332886,1.988831,4.837494,-3.162689,1,4,1,1,4,60.000000
2024-11-24 12:54:39.728,0.4865863743759161,-0.1126196082012337,0.7592086978821195,1.586402849712708,0.1478799602160701,-0.0196780742303097,0.4179891323594776,1.680369439093974,1.105466361083599,0.08490220408758281,0.6847592489023537,1.733434997134207,1.027873026964045,-0.02181473176193956,0.1886901782555949,1.126379036860118,0.2127060276798386,-0.555888349723606,-0.3232874584982248,0.4128956439310976,787.7289377289378,820.3663003663004,821.1721611721612,535.0915750915751,1147.948717948718,-0.048950,0.227234,0.945740,2.429962,-2.250519,6.766510,1,4,1,1,4,60.000000
2024-11-24 12:54:39.759,,,,,,,,,,,,,,,,,,,,,,,,,,,,,,,,,,,,,,/muse/elements/blink
2024-11-24 12:54:40.222,0.4865863743759161,0.3395304967927955,0.7973281437599112,1.586402849712708,0.1478799602160701,0.2007176036861406,0.7442624756786341,1.680369439093974,1.105466361083599,0.2910849399673777,0.8411442033565739,1.733434997134207,1.027873026964045,0.07736156178819158,0.2760534171757599,1.126379036860118,0.2127060276798386,-0.5073293773898137,-0.2097127714385573,0.4128956439310976,343.6996336996337,808.6813186813187,807.4725274725275,529.4505494505495,0,-0.051575,0.086975,0.932617,3.985138,-9.914246,0.388794,1,4,1,1,4,60.000000
2024-11-24 12:54:40.273,,,,,,,,,,,,,,,,,,,,,,,,,,,,,,,,,,,,,,/muse/elements/blink
2024-11-24 12:54:40.730,0.4865863743759161,0.4947626666866317,0.5284027984376054,1.586402849712708,0.1478799602160701,0.2324649688053621,0.7615580091856128,1.680369439093974,1.105466361083599,0.2484672580781916,0.790207399993476,1.733434997134207,1.027873026964045,0.08826200513475325,0.2552998374423239,1.126379036860118,0.2127060276798386,-0.4578575076101816,-0.1426887284376381,0.4128956439310976,549.1941391941392,801.8315018315019,807.4725274725275,804.6520146520147,0,-0.034546,0.175476,0.875305,3.588867,-9.674988,-7.985229,1,4,1,1,4,60.000000
2024-11-24 12:54:40.860,,,,,,,,,,,,,,,,,,,,,,,,,,,,,,,,,,,,,,/muse/elements/blink
2024-11-24 12:54:41.222,0.4865863743759161,0.722253313660393,0.6093295117056151,1.586402849712708,0.1478799602160701,0.4207382498660222,1.069862393355516,1.680369439093974,1.105466361083599,0.2427795995294425,0.7869031707661092,1.733434997134207,1.027873026964045,0.1778209085527297,0.4166969275811946,1.126379036860118,0.2127060276798386,-0.4436266760691071,0.000401475288734099,0.4128956439310976,639.8534798534798,807.0695970695971,801.8315018315019,742.6007326007326,1625.824175824176,-0.021851,0.069336,0.882812,11.110535,-12.374115,6.407623,1,4,1,1,4,60.000000
2024-11-24 12:54:41.504,,,,,,,,,,,,,,,,,,,,,,,,,,,,,,,,,,,,,,/muse/elements/blink
2024-11-24 12:54:41.729,0.4865863743759161,0.4278823505393496,0.5103374833855012,1.586402849712708,0.1478799602160701,-0.01354504599912478,0.1854915189527852,1.680369439093974,1.105466361083599,0.2472927425231733,0.4903969874397379,1.733434997134207,1.027873026964045,0.1112713085348895,-0.08801385789805928,1.126379036860118,0.2127060276798386,-0.2651559349795206,-0.6954523463585816,0.4128956439310976,1175.750915750916,801.8315018315019,807.4725274725275,1205.567765567765,1626.227106227106,0.044189,0.222473,0.956116,4.650574,-2.302856,-10.078735,1,4,1,1,4,60.000000
2024-11-24 12:54:41.994,,,,,,,,,,,,,,,,,,,,,,,,,,,,,,,,,,,,,,/muse/elements/blink
2024-11-24 12:54:42.222,0.4865863743759161,0.7681030991638716,1.141646681356027,1.586402849712708,0.1478799602160701,0.4635925170317954,0.6496990538141812,1.680369439093974,1.105466361083599,0.3997613242958665,0.8342360729119537,1.733434997134207,1.027873026964045,0.1898305909214186,0.2014605004227455,1.126379036860118,0.2127060276798386,-0.1814765175632511,-0.6460589475903171,0.4128956439310976,589.0842490842491,811.9047619047619,793.3699633699634,645.4945054945055,0,-0.108032,0.188782,1.023865,-3.828125,10.632019,-8.149719,1,4,1,1,4,60.000000
2024-11-24 12:54:42.421,,,,,,,,,,,,,,,,,,,,,,,,,,,,,,,,,,,,,,/muse/elements/blink
2024-11-24 12:54:42.722,0.4865863743759161,0.9883532164781098,1.237306161808327,1.586402849712708,0.1478799602160701,0.5603079848972387,0.8917287105949354,1.680369439093974,1.105466361083599,0.6049315093550396,0.902406567115617,1.733434997134207,1.027873026964045,0.2830250575488277,0.1982578830848861,1.126379036860118,0.2127060276798386,-0.2191376149653007,-0.5325224802823895,0.4128956439310976,432.3443223443223,808.6813186813187,799.8168498168499,794.981684981685,0,0.005493,0.125366,0.849731,8.074951,-6.467438,-31.843719,1,4,1,1,4,60.000000
2024-11-24 12:54:42.731,,,,,,,,,,,,,,,,,,,,,,,,,,,,,,,,,,,,,,/muse/elements/blink
2024-11-24 12:54:43.222,0.4865863743759161,1.089732508614219,1.349142623800301,1.586402849712708,0.1478799602160701,0.752730494185996,1.024252085002936,1.680369439093974,1.105466361083599,0.6219703460327451,0.902406567115617,1.733434997134207,1.027873026964045,0.2896700070742959,0.2200196906572805,1.126379036860118,0.2127060276798386,-0.2291320763565419,-0.421118755602826,0.4128956439310976,476.2637362637363,796.996336996337,809.4871794871796,564.5054945054945,0,-0.016052,0.198181,0.916870,4.261780,-14.377899,7.304840,1,4,1,1,4,60.000000
2024-11-24 12:54:43.316,,,,,,,,,,,,,,,,,,,,,,,,,,,,,,,,,,,,,,/muse/elements/blink
2024-11-24 12:54:43.728,0.4865863743759161,1.168001010569596,1.349021357270628,1.586402849712708,0.1478799602160701,0.8067794813804944,1.137116812150922,1.680369439093974,1.105466361083599,0.6219703460327451,0.723668221512037,1.733434997134207,1.027873026964045,0.316046871501702,0.07980934601186759,1.126379036860118,0.2127060276798386,-0.3101981788237447,-0.3091228884474837,0.4128956439310976,751.8681318681319,807.4725274725275,794.981684981685,1190.659340659341,1626.630036630037,-0.015381,0.080688,0.959717,1.697235,10.669403,6.489868,1,4,1,1,4,60.000000
2024-11-24 12:54:44.113,,,,,,,,,,,,,,,,,,,,,,,,,,,,,,,,,,,,,,/muse/elements/blink
2024-11-24 12:54:44.222,0.4865863743759161,1.041295982665282,1.322642871265661,1.586402849712708,0.1478799602160701,0.8780760850427346,1.141170162268615,1.680369439093974,1.105466361083599,0.4386690197537428,0.6994444051556978,1.733434997134207,1.027873026964045,0.1424441132598215,-0.0772515197432537,1.126379036860118,0.2127060276798386,-0.3024094310354118,-0.243937971159341,0.4128956439310976,828.021978021978,860.2564102564103,836.8864468864469,679.3406593406594,0,-0.047363,0.228027,1.130920,-2.355194,-5.144043,-9.689941,1,4,1,1,4,60.000000
2024-11-24 12:54:44.345,,,,,,,,,,,,,,,,,,,,,,,,,,,,,,,,,,,,,,/muse/elements/blink
2024-11-24 12:54:44.415,,,,,,,,,,,,,,,,,,,,,,,,,,,,,,,,,,,,,,/muse/elements/jaw_clench
2024-11-24 12:54:44.631,,,,,,,,,,,,,,,,,,,,,,,,,,,,,,,,,,,,,,/muse/elements/blink
2024-11-24 12:54:44.631,,,,,,,,,,,,,,,,,,,,,,,,,,,,,,,,,,,,,,/muse/elements/jaw_clench
2024-11-24 12:54:44.723,0.4865863743759161,0.9441631525521723,1.322642871265661,1.586402849712708,0.1478799602160701,0.882541019497584,1.141170162268615,1.680369439093974,1.105466361083599,0.5420508283168756,0.6994444051556978,1.733434997134207,1.027873026964045,0.215619664488035,-0.0772515197432537,1.126379036860118,0.2127060276798386,0.09904272469191823,-0.243937971159341,0.4128956439310976,795.3846153846154,806.6666666666667,798.6080586080586,580.6227106227107,831.6483516483516,-0.098206,0.224487,0.971985,3.364563,-8.501129,13.024597,1,4,1,1,4,60.000000
2024-11-24 12:54:45.222,0.4865863743759161,0.9441631525521723,1.322642871265661,1.586402849712708,0.1478799602160701,0.882541019497584,1.141170162268615,1.680369439093974,1.105466361083599,0.5420508283168756,0.6994444051556978,1.733434997134207,1.027873026964045,0.215619664488035,-0.0772515197432537,1.126379036860118,0.2127060276798386,0.09904272469191823,-0.243937971159341,0.4128956439310976,515.3479853479854,816.7399267399268,800.6227106227107,722.8571428571429,917.8754578754579,-0.108154,0.080994,0.929016,6.250610,11.349792,8.822632,1,4,1,1,4,60.000000
2024-11-24 12:54:45.310,,,,,,,,,,,,,,,,,,,,,,,,,,,,,,,,,,,,,,/muse/elements/blink
2024-11-24 12:54:45.723,0.4865863743759161,0.9441631525521723,1.322642871265661,1.586402849712708,0.1478799602160701,0.882541019497584,1.141170162268615,1.680369439093974,1.105466361083599,0.5420508283168756,0.6994444051556978,1.733434997134207,1.027873026964045,0.215619664488035,-0.0772515197432537,1.126379036860118,0.2127060276798386,0.09904272469191823,-0.243937971159341,0.4128956439310976,1150.769230769231,792.5641025641025,799.0109890109891,1063.736263736264,1630.659340659341,-0.077209,0.211548,0.910339,-4.486084,-3.865509,-0.500946,1,4,1,1,4,60.000000
2024-11-24 12:54:45.749,,,,,,,,,,,,,,,,,,,,,,,,,,,,,,,,,,,,,,/muse/elements/blink
2024-11-24 12:54:46.078,,,,,,,,,,,,,,,,,,,,,,,,,,,,,,,,,,,,,,/muse/elements/blink
2024-11-24 12:54:46.234,0.4865863743759161,0.2308755969568264,0.6430045618072316,1.586402849712708,0.1478799602160701,0.1297583485201823,0.3252411157795423,1.680369439093974,1.105466361083599,0.5738170195648052,0.4835090138203143,1.733434997134207,1.027873026964045,0.08771680071982409,-0.02685353472168215,1.126379036860118,0.2127060276798386,-0.1902523453375797,-0.1700505026441692,0.4128956439310976,875.9706959706959,806.6666666666667,796.5934065934066,904.5787545787546,471.8315018315018,-0.055725,0.182251,0.992920,0.284119,3.342133,1.300964,1,4,1,1,2,60.000000
2024-11-24 12:54:46.729,0.4865863743759161,0.4505765349981298,0.5287580267756734,1.586402849712708,0.1478799602160701,0.1221178273432064,0.1926711892705587,1.680369439093974,1.105466361083599,0.5738170195648052,0.5322881467724226,1.733434997134207,1.027873026964045,0.0466742918999905,0.003992743269477027,1.126379036860118,0.2127060276798386,-0.07444930186966664,-0.1976827373930425,0.4128956439310976,860.2564102564103,804.6520146520147,804.6520146520147,842.5274725274726,691.8315018315019,-0.096252,0.169189,0.990234,3.215027,-1.906586,-3.087921,1,2,1,1,2,60.000000
2024-11-24 12:54:47.066,,,,,,,,,,,,,,,,,,,,,,,,,,,,,,,,,,,,,,/muse/elements/blink
2024-11-24 12:54:47.223,0.4865863743759161,0.7054602668298036,0.6282203199791311,1.586402849712708,0.1478799602160701,0.184540175831046,0.2323718003652718,1.680369439093974,1.105466361083599,0.5105569766086235,0.4844046799540834,1.733434997134207,1.027873026964045,-0.01757023701979678,0.1001125771616198,1.126379036860118,0.2127060276798386,-0.1042540809467297,-0.1550571392683931,0.4128956439310976,829.2307692307693,807.4725274725275,796.996336996337,849.7802197802198,678.1318681318681,-0.130981,0.184143,0.993652,1.076660,-4.695435,-7.798309,1,2,1,1,4,60.000000
2024-11-24 12:54:47.394,,,,,,,,,,,,,,,,,,,,,,,,,,,,,,,,,,,,,,/muse/elements/blink
2024-11-24 12:54:47.730,0.4865863743759161,0.9078988789381294,0.7982023547572495,1.586402849712708,0.1478799602160701,0.456979229490362,0.4708240399620159,1.680369439093974,1.105466361083599,0.3107991393790054,0.7247574282406439,1.733434997134207,1.027873026964045,-0.02179746095461996,0.1491628304281224,1.126379036860118,0.2127060276798386,-0.1664719669692709,-0.1684931534726224,0.4128956439310976,926.3369963369963,800.2197802197802,808.2783882783883,907.3992673992674,1439.67032967033,-0.105774,0.115723,1.016541,1.233673,-0.186920,3.125305,1,2,1,1,2,60.000000
2024-11-24 12:54:48.072,,,,,,,,,,,,,,,,,,,,,,,,,,,,,,,,,,,,,,/muse/elements/blink
2024-11-24 12:54:48.222,0.4865863743759161,0.9065787673451368,0.9034186617608975,1.586402849712708,0.1478799602160701,0.5237896736242017,0.5631667547488781,1.680369439093974,1.105466361083599,0.3163732973243165,0.7247574282406439,1.733434997134207,1.027873026964045,-0.01625400054036093,0.1338473822428701,1.126379036860118,0.2127060276798386,-0.3550815724214785,-0.1735307509450516,0.4128956439310976,817.948717948718,796.5934065934066,810.6959706959707,937.6190476190476,840.9157509157509,-0.163391,0.161804,0.970398,8.403931,2.056122,-26.617432,1,2,1,1,2,60.000000
2024-11-24 12:54:48.722,0.4865863743759161,1.161057980949642,0.935550193600016,1.586402849712708,0.1478799602160701,0.9159207138047196,0.6471228021454341,1.680369439093974,1.105466361083599,0.9458743625748951,0.7247574282406439,1.733434997134207,1.027873026964045,0.009097626837582607,0.05651032313304322,1.126379036860118,0.2127060276798386,-0.2763512013942155,-0.2375539538214447,0.4128956439310976,785.3113553113553,788.5347985347986,813.1135531135532,277.6190476190476,810.6959706959707,-0.369507,0.161499,0.937622,4.299164,-11.215210,0.934601,1,2,1,1,2,60.000000
2024-11-24 12:54:49.121,,,,,,,,,,,,,,,,,,,,,,,,,,,,,,,,,,,,,,/muse/elements/blink
2024-11-24 12:54:49.222,0.4865863743759161,1.303812592414426,0.9538905756764159,1.586402849712708,0.1478799602160701,1.0790465254876,0.5764138064793281,1.680369439093974,1.105466361083599,1.057016428873879,0.6888487271714452,1.733434997134207,1.027873026964045,0.06140260320325799,-0.1102721569789298,1.126379036860118,0.2127060276798386,-0.1973627466058966,-0.2890498451571784,0.4128956439310976,710.7692307692308,882.4175824175825,704.3223443223443,882.4175824175825,797.8021978021978,-0.322815,0.160706,0.938721,11.985321,-20.755615,-29.578247,1,2,1,1,4,60.000000
2024-11-24 12:54:49.404,,,,,,,,,,,,,,,,,,,,,,,,,,,,,,,,,,,,,,/muse/elements/blink
2024-11-24 12:54:49.723,0.4865863743759161,1.409717466227451,0.9538905756764159,1.586402849712708,0.1478799602160701,1.185125728892069,0.5764138064793281,1.680369439093974,1.105466361083599,1.057016428873879,0.6888487271714452,1.733434997134207,1.027873026964045,0.0762249398507987,-0.1102721569789298,1.126379036860118,0.2127060276798386,-0.1399190379060627,-0.2890498451571784,0.4128956439310976,774.0293040293041,861.8681318681319,701.0989010989011,1062.527472527473,869.92673992674,-0.148560,0.175537,1.021118,10.153503,-30.049286,-66.506195,1,2,1,1,4,60.000000
2024-11-24 12:54:49.729,,,,,,,,,,,,,,,,,,,,,,,,,,,,,,,,,,,,,,/muse/elements/blink
