TimeStamp,Delta_TP9,Delta_AF7,Delta_AF8,Delta_TP10,Theta_TP9,Theta_AF7,Theta_AF8,Theta_TP10,Alpha_TP9,Alpha_AF7,Alpha_AF8,Alpha_TP10,Beta_TP9,Beta_AF7,Beta_AF8,Beta_TP10,Gamma_TP9,Gamma_AF7,Gamma_AF8,Gamma_TP10,RAW_TP9,RAW_AF7,RAW_AF8,RAW_TP10,AUX_RIGHT,AUX_LEFT,Accelerometer_X,Accelerometer_Y,Accelerometer_Z,Gyro_X,Gyro_Y,Gyro_Z,HeadBandOn,HSI_TP9,HSI_AF7,HSI_AF8,HSI_TP10,Battery,Elements
2024-12-21 15:46:26.805,,,,,,,,,,,,,,,,,,,,,,,,,,,,,,,,,,,,,,,/muse/event/connected MuseS-9CF6
2024-12-21 15:46:26.853,,,,,,,,,,,,,,,,,,,,,,,,,,,,,,,,,,,,,,,/muse/elements/blink
2024-12-21 15:46:26.989,,,,,,,,,,,,,,,,,,,,,,,,,,,,,,,,,,,,,,,/muse/elements/blink
2024-12-21 15:46:27.305,0.8863551725327335,1.1078056543415,1.176864292816276,0.5650307670554517,0.4260439194659551,0.8814071032833386,0.8599403989230257,0.06846981636925177,0.5669465101385436,0.5117496616910669,0.6470636938233915,0.2956471316171483,0.7472161534301762,-0.03976517966416071,0.05629456999024354,0.3114136497011084,0.7204889015564245,-0.1131276481552981,-0.2022489501227481,-0.09498158254672612,667.2527472527473,786.1172161172161,804.2490842490843,661.6117216117216,892.893772893773,1209.59706959707,-0.382324,0.005859,0.931152,-2.086029,7.917938,4.590759,1,2,1,1,2,94.000000
2024-12-21 15:46:27.491,,,,,,,,,,,,,,,,,,,,,,,,,,,,,,,,,,,,,,,/muse/elements/blink
2024-12-21 15:46:27.813,0.8863551725327335,1.192445477340365,1.132518162205245,0.5650307670554517,0.4260439194659551,0.9638606101910939,0.7391302977922182,0.06846981636925177,0.5669465101385436,0.5117496616910669,0.3105553557492308,0.2956471316171483,0.7472161534301762,-0.09144871143387034,-0.02651036548472395,0.3114136497011084,0.7204889015564245,-0.1379753228024552,-0.1954040515025086,-0.09498158254672612,801.8315018315019,792.1611721611722,803.4432234432235,811.5018315018315,761.1355311355312,630.989010989011,-0.435486,0.004456,0.885986,0.553284,0.792542,-1.966400,1,2,1,1,2,94.000000
2024-12-21 15:46:28.313,0.8863551725327335,1.105851237510519,1.132518162205245,0.5650307670554517,0.4260439194659551,0.5451444995089595,0.7391302977922182,0.06846981636925177,0.5669465101385436,0.2610456497762763,0.3105553557492308,0.2956471316171483,0.7472161534301762,-0.06785127072247929,-0.02651036548472395,0.3114136497011084,0.7204889015564245,-0.04589205134177058,-0.1954040515025086,-0.09498158254672612,802.2344322344322,798.2051282051282,801.025641025641,786.9230769230769,786.5201465201466,957.3626373626374,-0.419067,-0.002380,0.899048,-0.538330,-2.429962,-0.605621,1,2,1,1,2,94.000000
2024-12-21 15:46:28.813,0.8863551725327335,0.7384047097088845,1.132518162205245,0.5650307670554517,0.4260439194659551,0.09050395023659909,0.7391302977922182,0.06846981636925177,0.5669465101385436,0.3019451560973629,0.3105553557492308,0.2956471316171483,0.7472161534301762,-0.03587588439943479,-0.02651036548472395,0.3114136497011084,0.7204889015564245,-0.1490111469771903,-0.1954040515025086,-0.09498158254672612,789.3406593406594,815.934065934066,791.3553113553114,792.967032967033,785.3113553113553,907.8021978021978,-0.429016,-0.018799,0.890747,0.844879,-1.338348,-0.284119,1,2,1,1,2,94.000000
2024-12-21 15:46:29.306,0.3641600829620693,0.9091283586877325,0.9097304254902279,0.5650307670554517,0.2489376691030832,0.2283654016707747,0.5272403293052289,0.06846981636925177,0.434595716919409,0.3829669244493117,0.4253250771133718,0.2956471316171483,0.7040896447953584,-0.001537437191853537,-0.07662942353945548,0.3114136497011084,0.5218440374499005,-0.2127342077058678,-0.4423756388183113,-0.09498158254672612,789.7435897435897,805.4578754578755,799.8168498168499,801.025641025641,828.8278388278388,693.4432234432235,-0.421631,-0.021545,0.898071,0.411224,-2.190704,-0.127106,1,1,1,1,1,94.000000
2024-12-21 15:46:29.806,0.3826995084706901,0.8423228335163415,0.7935521813277229,0.7012364237440765,0.3307348829567927,0.322953250235974,0.3733731318104632,0.2636407678521779,0.4801100629833894,0.3947923959812152,0.4458773924713947,0.2420137928466946,0.6487884503141934,-0.005764308973149889,-0.05393549760567124,0.2631954881532803,0.50878274595363,-0.307311699808304,-0.4295208352575419,0.02927631189887758,805.8608058608058,800.2197802197802,797.3992673992674,804.2490842490843,831.6483516483516,699.4871794871796,-0.415222,-0.008850,0.896606,-0.299072,0.672913,1.016846,1,1,1,1,1,94.000000
2024-12-21 15:46:30.306,0.3709440495069543,0.8488096651761361,0.6827107267566338,0.6474745096291983,0.2790884791737288,0.3809108459963232,0.2420300558215606,0.1705380092863913,0.4720393189743525,0.4104259361938702,0.4289686586423855,0.3214103034983297,0.6528596574228879,-0.04385869695518888,-0.006475367724059663,0.3111157681659819,0.4199869556348256,-0.3247014588063432,-0.3158186958047704,-0.01838317215052242,791.7582417582418,798.6080586080586,797.3992673992674,800.6227106227107,734.9450549450549,909.0109890109891,-0.379578,-0.027283,0.941284,-1.151428,0.418701,-1.786957,1,1,1,1,1,94.000000
2024-12-21 15:46:30.806,0.3461835765897953,0.5892204615112716,0.3315853428536916,0.6856842414700144,0.3077554272974862,0.3072776342911978,-0.3049907404238149,0.3393602327448292,0.3112368685278599,0.3687804146405619,0.04151152114542242,0.557098647515314,0.6113501602033977,-0.02937605232946133,-0.03339265038845291,0.3600925484653256,0.3805526669110144,-0.3497886809013376,-0.2924344179565349,0.01269444428129383,801.4285714285714,809.4871794871796,803.040293040293,815.5311355311355,886.0439560439561,778.8644688644689,-0.421265,-0.018005,0.896606,0.314026,2.056122,0.777588,1,1,1,1,1,94.000000
2024-12-21 15:46:31.306,0.8536362512040376,0.4015496745113483,0.1559238485416692,0.7555811732193443,0.877079982449708,0.1882843196401759,-0.2619601883523702,0.6215183195410592,0.9550696365445424,0.3756398713755711,0.0670367789450676,0.7180180119122339,0.5404108411950694,-0.06324200374777182,-0.04732123085152427,0.4218262669588901,0.2838741587400959,-0.3252470623210968,-0.1903398516880027,0.05424079824379237,776.0439560439561,792.1611721611722,790.5494505494506,772.014652014652,862.6739926739926,1056.483516483516,-0.422180,-0.006653,0.907288,-0.448608,8.351593,2.848663,1,1,1,1,1,94.000000
2024-12-21 15:46:31.447,,,,,,,,,,,,,,,,,,,,,,,,,,,,,,,,,,,,,,,/muse/elements/blink
2024-12-21 15:46:31.806,1.532551461507724,0.4732164734531634,0.2984878763776097,0.8272795202067099,1.380881247839287,0.312764957012256,0.05392694259270496,0.7694740507066291,1.148895497963396,0.408774154712497,0.1331193392672984,0.7180180119122339,0.7732910750819711,0.02269669444148482,-0.06369406744527563,0.4552632315234244,0.3636369440881695,-0.3874281953070397,-0.2106298901312954,0.1111701999413631,792.5641025641025,803.040293040293,805.8608058608058,807.0695970695971,718.8278388278388,865.8974358974359,-0.472656,-0.007141,0.841125,-2.676697,-0.343933,2.235565,1,1,1,1,1,94.000000
2024-12-21 15:46:32.305,1.532551461507724,0.4428932447286683,0.2039566600400044,0.9049384854256775,1.380881247839287,0.301196291026582,0.07124601424407909,0.9416739971020722,1.148895497963396,0.3956562041701884,0.1384077982903955,0.7180180119122339,0.7732910750819711,-0.03018043667010902,0.02486240065964024,0.4688745650618991,0.3636369440881695,-0.369602495888164,-0.1587439072730429,0.1588261380511844,789.7435897435897,796.996336996337,802.6373626373627,802.2344322344322,697.4725274725275,562.4908424908425,-0.486450,-0.017456,0.850281,-0.164490,1.532745,1.263580,1,1,1,1,1,94.000000
2024-12-21 15:46:32.787,,,,,,,,,,,,,,,,,,,,,,,,,,,,,,,,,,,,,,,/muse/elements/blink
2024-12-21 15:46:32.806,1.754176873761788,0.3837730669687749,0.2829307080591454,0.9049384854256775,1.551262501094363,0.2401677976757157,0.07660189590026931,0.9416739971020722,1.096123491850897,0.09063009181996737,0.09643950397947115,0.7180180119122339,0.9659750337020195,-0.07539359869658019,0.03323065083912283,0.4688745650618991,0.3755625454630942,-0.5003514064344659,-0.2240225793592576,0.1588261380511844,840.9157509157509,802.6373626373627,784.5054945054945,831.6483516483516,768.3882783882784,960.1831501831502,-0.517456,-0.030396,0.852478,0.067291,1.704712,-2.519684,1,1,1,1,1,94.000000
2024-12-21 15:46:33.306,1.831506132902945,0.453513246927791,0.1062754937664142,0.9049384854256775,1.617254152283249,-0.1212166750425354,-0.1506452781733568,0.9416739971020722,1.096123491850897,0.0222655288623306,-0.008381397198890814,0.7180180119122339,1.03116340280347,-0.1439630956165291,0.04574171218101964,0.4688745650618991,0.3858789172839972,-0.4680097885873316,-0.2229276822228514,0.1588261380511844,781.6849816849817,796.996336996337,804.6520146520147,794.981684981685,888.4615384615385,985.5677655677656,-0.517517,-0.018250,0.843506,-0.067291,0.007477,-0.934601,1,1,1,1,1,94.000000
2024-12-21 15:46:33.704,,,,,,,,,,,,,,,,,,,,,,,,,,,,,,,,,,,,,,,/muse/elements/blink
2024-12-21 15:46:33.806,1.831506132902945,0.6433155122070919,0.3933419664500151,0.9049384854256775,1.617254152283249,-0.08095505045892812,0.0589701096562207,0.9416739971020722,1.096123491850897,0.06934760211199577,-0.08399092498336022,0.7180180119122339,1.03116340280347,-0.09829201986896834,-0.0552799930885831,0.4688745650618991,0.3858789172839972,-0.4677389193349313,-0.3202273411527772,0.1588261380511844,818.7545787545788,804.6520146520147,798.2051282051282,732.1245421245421,740.5860805860806,598.7545787545788,-0.486633,-0.010437,0.876343,-1.203766,-0.889740,0.358887,1,1,1,1,1,94.000000
2024-12-21 15:46:34.306,1.831506132902945,0.9422432865490984,0.3933419664500151,0.9049384854256775,1.617254152283249,0.1572206784386884,0.0589701096562207,0.9416739971020722,1.096123491850897,0.1686931568431951,-0.08399092498336022,0.7180180119122339,1.03116340280347,-0.01770323888535466,-0.0552799930885831,0.4688745650618991,0.3858789172839972,-0.3975855984644195,-0.3202273411527772,0.1588261380511844,516.5567765567765,766.3736263736264,871.1355311355312,576.1904761904763,811.0989010989011,853.0036630036631,-0.486511,0.006104,0.864868,0.837402,1.106567,-0.770111,1,1,1,1,1,94.000000
2024-12-21 15:46:34.512,,,,,,,,,,,,,,,,,,,,,,,,,,,,,,,,,,,,,,,/muse/elements/blink
2024-12-21 15:46:34.806,1.831506132902945,1.046733665905655,0.3933419664500151,0.9049384854256775,1.617254152283249,0.3282481707886612,0.0589701096562207,0.9416739971020722,1.096123491850897,0.1686931568431951,-0.08399092498336022,0.7180180119122339,1.03116340280347,0.03178997971164189,-0.0552799930885831,0.4688745650618991,0.3858789172839972,-0.3521457769898974,-0.3202273411527772,0.1588261380511844,785.3113553113553,799.4139194139194,820.7692307692308,751.4652014652015,800.6227106227107,952.1245421245421,-0.488403,-0.008057,0.845764,0.007477,-0.852356,1.749573,1,2,1,1,2,94.000000
2024-12-21 15:46:34.905,,,,,,,,,,,,,,,,,,,,,,,,,,,,,,,,,,,,,,,/muse/elements/blink
2024-12-21 15:46:35.306,1.831506132902945,1.260808172131435,0.3933419664500151,0.9049384854256775,1.617254152283249,0.5309284985557838,0.0589701096562207,0.9416739971020722,1.096123491850897,0.1022516970455306,-0.08399092498336022,0.7180180119122339,1.03116340280347,0.1308961433603378,-0.0552799930885831,0.4688745650618991,0.3858789172839972,-0.4045616513459824,-0.3202273411527772,0.1588261380511844,796.1904761904763,794.5787545787546,810.6959706959707,802.6373626373627,778.4615384615385,773.2234432234433,-0.507446,-0.030518,0.847473,0.171967,1.846771,-2.452393,1,2,1,1,2,94.000000
2024-12-21 15:46:35.714,,,,,,,,,,,,,,,,,,,,,,,,,,,,,,,,,,,,,,,/muse/elements/blink
2024-12-21 15:46:35.811,1.831506132902945,1.260808172131435,0.3933419664500151,0.9049384854256775,1.617254152283249,0.5309284985557838,0.0589701096562207,0.9416739971020722,1.096123491850897,0.1022516970455306,-0.08399092498336022,0.7180180119122339,1.03116340280347,0.1308961433603378,-0.0552799930885831,0.4688745650618991,0.3858789172839972,-0.4045616513459824,-0.3202273411527772,0.1588261380511844,794.1758241758242,803.040293040293,799.4139194139194,794.1758241758242,793.7728937728938,923.5164835164835,-0.504761,-0.011414,0.845154,1.001892,-3.035583,-0.276642,1,2,1,1,2,94.000000
2024-12-21 15:46:36.305,1.831506132902945,-0.0646463398713155,-0.3883050595905459,0.9049384854256775,1.617254152283249,-0.1770694167036342,-0.231116862010216,0.9416739971020722,1.096123491850897,-0.02290812460263959,0.3503183405464536,0.7180180119122339,1.03116340280347,0.125707664941029,0.2443824931577065,0.4688745650618991,0.3858789172839972,-0.2456663261443363,-0.1166011052562551,0.1588261380511844,782.0879120879121,797.8021978021978,794.1758241758242,796.1904761904763,791.3553113553114,1019.010989010989,-0.520691,-0.053101,0.764587,1.689758,3.865509,3.611298,1,2,1,1,2,94.000000
2024-12-21 15:46:36.813,1.831506132902945,0.1537042395925487,-0.2209927441287314,0.9049384854256775,1.617254152283249,0.2295218214441493,-0.2247781201526073,0.9416739971020722,1.096123491850897,0.0739199741375363,0.374274777854052,0.7180180119122339,1.03116340280347,0.08817710437927631,0.193324095886731,0.4688745650618991,0.3858789172839972,-0.3094159847282494,-0.1520037706128592,0.1588261380511844,780.8791208791209,788.1318681318681,801.4285714285714,811.0989010989011,755.8974358974359,752.6739926739926,-0.527527,-0.030762,0.886902,2.848663,-2.362671,-6.916046,1,2,1,1,2,94.000000
2024-12-21 15:46:37.306,1.831506132902945,0.4992782754244049,0.4930823582453681,0.9019027424153437,1.617254152283249,0.2901473199384103,0.1227892406648763,0.7207075469878963,1.096123491850897,0.1388128735670632,0.5143126533388249,0.5708675752437562,1.03116340280347,0.01166222975316048,0.09140965817399783,0.5375568769194033,0.3858789172839972,-0.3391638627849097,-0.2187926191380299,0.190196781349515,807.4725274725275,796.996336996337,797.8021978021978,794.981684981685,743.8095238095239,815.1282051282052,-0.524414,0.029419,0.780640,-0.306549,-8.658142,-0.800018,1,1,1,1,1,94.000000
2024-12-21 15:46:37.805,1.831506132902945,0.7763881402434337,0.5740108379022707,0.8909839226713873,1.617254152283249,0.3789121177387549,0.182052011723959,0.5480375366233631,1.096123491850897,0.2239265233182323,0.5163515933628959,0.5708675752437562,1.03116340280347,-0.1190160494623827,-0.06453076668431351,0.4348096376460874,0.3858789172839972,-0.3515205671887024,-0.3065299808013229,0.12545834205443,804.6520146520147,805.4578754578755,811.5018315018315,814.3223443223443,815.1282051282052,1230.14652014652,-0.509766,-0.077759,0.827759,5.600128,-14.662018,2.751465,1,1,1,1,1,94.000000
2024-12-21 15:46:38.290,,,,,,,,,,,,,,,,,,,,,,,,,,,,,,,,,,,,,,,/muse/elements/blink
2024-12-21 15:46:38.306,1.831506132902945,0.7426148175692655,0.6676642298128166,0.885268786650078,1.617254152283249,0.1411727704703693,0.2692251517100353,0.5257461358009429,1.096123491850897,0.2670885310391773,0.5138132832182559,0.5522983860325156,1.03116340280347,-0.1384779000157903,-0.1861609094364269,0.4257250400095932,0.3858789172839972,-0.3412602491584676,-0.3728546268840289,0.1258483992676988,842.1245421245421,810.2930402930403,772.8205128205128,694.2490842490843,855.4212454212454,757.1062271062272,-0.517090,-0.075745,0.748657,0.014954,6.175842,-4.037476,1,1,1,1,1,94.000000
2024-12-21 15:46:38.808,1.831506132902945,0.4792182571351275,0.3327719636462149,0.8775083208681066,1.617254152283249,0.05480360336970644,0.0584096775028044,0.1651681287504266,1.096123491850897,0.2438017252812844,0.3384772949853935,0.06542107081406216,1.03116340280347,-0.05018105004787939,-0.1605324264789524,0.2671287197155027,0.3858789172839972,-0.3400368905677352,-0.4110694208922523,0.03238612606700537,823.1868131868132,790.5494505494506,807.4725274725275,822.7838827838829,752.2710622710623,907.3992673992674,-0.546875,0.033264,0.749817,-0.321503,3.372040,2.295380,1,1,1,1,1,94.000000
2024-12-21 15:46:39.171,,,,,,,,,,,,,,,,,,,,,,,,,,,,,,,,,,,,,,,/muse/elements/blink
2024-12-21 15:46:39.305,1.831506132902945,0.1629900921532688,0.1125518175283695,0.8241120369795162,1.617254152283249,0.02944771449975752,0.005699737115278072,0.06048712826507828,1.096123491850897,0.1682389394311856,0.07882834217692229,-0.06518783440415968,1.03116340280347,0.07201415443764055,-0.1422682173370101,0.2375588064768523,0.3858789172839972,-0.2435194768107104,-0.4340522376669945,0.01747757259537569,832.4542124542124,798.2051282051282,796.996336996337,805.4578754578755,885.2380952380953,1376.007326007326,-0.566528,-0.087891,0.847778,3.005676,0.949554,7.402039,1,1,1,1,1,94.000000
2024-12-21 15:46:39.590,,,,,,,,,,,,,,,,,,,,,,,,,,,,,,,,,,,,,,,/muse/elements/blink
2024-12-21 15:46:39.789,,,,,,,,,,,,,,,,,,,,,,,,,,,,,,,,,,,,,,,/muse/elements/blink
2024-12-21 15:46:39.805,1.831506132902945,0.5546062599823676,0.1125518175283695,0.8241120369795162,1.617254152283249,0.3234231652690144,0.005699737115278072,0.06048712826507828,1.096123491850897,0.4786064240451265,0.07882834217692229,-0.06518783440415968,1.03116340280347,0.1689922717695022,-0.1422682173370101,0.2375588064768523,0.3858789172839972,-0.1128601597201609,-0.4340522376669945,0.01747757259537569,810.6959706959707,804.2490842490843,788.9377289377289,801.025641025641,902.967032967033,557.6556776556777,-0.704163,-0.094238,0.970764,-2.706604,-2.601929,-6.975861,1,1,1,1,1,94.000000
2024-12-21 15:46:40.306,1.831506132902945,0.707620332385282,0.1125518175283695,0.8241120369795162,1.617254152283249,0.3694001903953145,0.005699737115278072,0.06048712826507828,1.096123491850897,0.5609972789470337,0.07882834217692229,-0.06518783440415968,1.03116340280347,0.1944535718325988,-0.1422682173370101,0.2375588064768523,0.3858789172839972,0.00279140570375548,-0.4340522376669945,0.01747757259537569,809.4871794871796,797.8021978021978,800.2197802197802,802.6373626373627,770.4029304029305,953.7362637362637,-0.561462,0.037048,0.716309,1.906586,1.966400,2.661743,1,1,1,1,1,94.000000
2024-12-21 15:46:40.805,1.831506132902945,0.6959816351609109,0.1125518175283695,0.8241120369795162,1.617254152283249,0.3241776673239881,0.005699737115278072,0.06048712826507828,1.096123491850897,0.5609972789470337,0.07882834217692229,-0.06518783440415968,1.03116340280347,0.1265728236335681,-0.1422682173370101,0.2375588064768523,0.3858789172839972,-0.06834419916843294,-0.4340522376669945,0.01747757259537569,792.967032967033,805.0549450549451,797.8021978021978,794.5787545787546,830.0366300366301,1075.824175824176,-0.479614,-0.050049,0.784302,6.415100,-10.056305,-0.000000,1,2,1,1,2,94.000000
2024-12-21 15:46:41.305,0.7005629099231221,0.4470345211935856,0.6520513787191439,0.6109560562523479,0.0861232702106953,0.1362175939024589,0.1967204689324725,0.1964051569764484,0.5553871978547193,0.5675574009213119,0.1527962327919358,0.5036596295472392,1.135281394461757,0.07117521744085792,0.04393532968784337,0.4766798410493805,0.6913985246082717,-0.2191739541876934,-0.5812735959125469,0.2116325372033754,1042.783882783883,792.5641025641025,820.7692307692308,859.8534798534798,823.1868131868132,884.4322344322345,-0.544128,0.058533,0.855286,-1.772003,-5.173950,-0.142059,1,2,1,1,2,94.000000
2024-12-21 15:46:41.805,0.7005629099231221,0.1884746806152974,0.4721892753869594,0.7180736428752066,0.0861232702106953,0.01480216036903077,-0.005483522598268565,0.3438484953648778,0.5553871978547193,0.3614427143516861,0.157723458099116,0.7330677668066047,1.135281394461757,0.3296676537894578,0.1705214253307976,0.7332400641923273,0.6913985246082717,0.06823259296500588,-0.1837067801255609,0.5678150781721339,711.5750915750916,815.934065934066,835.6776556776557,714.7985347985348,850.989010989011,836.0805860805862,-0.507935,0.031555,0.844421,-2.175751,-5.929108,1.719666,1,1,1,1,1,94.000000
2024-12-21 15:46:42.029,,,,,,,,,,,,,,,,,,,,,,,,,,,,,,,,,,,,,,,/muse/elements/blink
2024-12-21 15:46:42.305,0.7005629099231221,0.2834686669339018,0.8287704636026932,0.7180736428752066,0.0861232702106953,0.1730132723841602,0.3916976018570574,0.3438484953648778,0.5553871978547193,0.4479102258764451,0.2833255886014295,0.7330677668066047,1.135281394461757,0.4829782137284039,0.1564510002165209,0.7332400641923273,0.6913985246082717,0.2773250532413344,-0.2040353131830904,0.5678150781721339,805.4578754578755,805.0549450549451,794.1758241758242,801.8315018315019,827.2161172161173,1029.487179487179,-0.542114,-0.050781,0.767639,0.403748,1.502838,-5.413208,1,1,1,1,1,94.000000
2024-12-21 15:46:42.805,0.7005629099231221,0.496360571662883,0.8958964654655366,0.7880623615682936,0.0861232702106953,0.4486752623733885,0.4638928702083728,0.4338593206520965,0.5553871978547193,0.5031650699401314,0.2400680656058021,0.729470843644513,1.135281394461757,0.4978472207072127,0.2033822558435811,0.8657787582655594,0.6913985246082717,0.3038099029774248,-0.09336628229652597,0.7284949172994389,800.6227106227107,795.7875457875458,803.8461538461539,781.6849816849817,836.0805860805862,709.5604395604396,-0.540039,0.067688,0.748840,0.814972,2.579498,-1.465454,1,1,1,1,1,94.000000
2024-12-21 15:46:43.310,0.7005629099231221,0.4933591166675091,0.9449560079689232,0.8181217421505955,0.0861232702106953,0.4145391073735983,0.5818934702050145,0.5183566384818487,0.5553871978547193,0.5018775361774361,0.1879221134344354,0.6860111691035647,1.135281394461757,0.41235082494684,0.09617556958644859,0.9223967918602118,0.6913985246082717,0.1869860653436199,-0.242713276698299,0.7858488523377072,823.5897435897436,812.3076923076924,805.0549450549451,871.1355311355312,719.6336996336996,1384.871794871795,-0.515503,-0.043762,0.805725,0.269165,7.005768,3.431854,1,1,1,1,1,94.000000
2024-12-21 15:46:43.630,,,,,,,,,,,,,,,,,,,,,,,,,,,,,,,,,,,,,,,/muse/elements/jaw_clench
2024-12-21 15:46:43.762,,,,,,,,,,,,,,,,,,,,,,,,,,,,,,,,,,,,,,,/muse/elements/blink
2024-12-21 15:46:43.814,0.7005629099231221,0.391405189606037,0.5145873344114492,0.8181217421505955,0.0861232702106953,0.3531416865511342,0.302290914908432,0.5183566384818487,0.5553871978547193,0.5102094704482456,0.01272267645260747,0.6860111691035647,1.135281394461757,0.1564005032118972,0.3152344500216172,0.9223967918602118,0.6913985246082717,-0.2025377654831758,-0.05115946733184368,0.7858488523377072,794.5787545787546,783.6996336996338,813.5164835164835,790.5494505494506,812.7106227106227,1154.798534798535,-0.300659,-0.060486,0.706543,-2.362671,-1.861725,-7.917938,1,1,1,1,1,94.000000
2024-12-21 15:46:44.305,0.7005629099231221,0.162568969309578,0.4577465809924125,0.8181217421505955,0.0861232702106953,0.03311148670904448,0.2632059246597626,0.5183566384818487,0.5553871978547193,0.3075074672303767,0.1444101329540711,0.6860111691035647,1.135281394461757,0.1878093219891085,0.3357908709323106,0.9223967918602118,0.6913985246082717,-0.08738307933682175,0.04692332490267703,0.7858488523377072,753.8827838827839,794.1758241758242,805.0549450549451,791.3553113553114,851.3919413919414,687.8021978021978,-0.502686,0.124939,0.785095,-0.022430,0.261688,4.620667,1,1,1,1,1,94.000000
2024-12-21 15:46:44.805,0.7005629099231221,-0.0101787481512984,0.4984317240947341,0.8181217421505955,0.0861232702106953,0.06694751057571696,0.2588437507086051,0.5183566384818487,0.5553871978547193,0.2922212537152308,0.2119398677932497,0.6860111691035647,1.135281394461757,0.2434198610051221,0.344592424755655,0.9223967918602118,0.6913985246082717,0.02881075252368519,0.07626231353682948,0.7858488523377072,797.3992673992674,789.3406593406594,814.3223443223443,820.7692307692308,709.5604395604396,1065.750915750916,-0.585022,-0.053406,0.939514,-0.306549,7.506714,13.084412,1,2,1,1,2,94.000000
2024-12-21 15:46:45.305,0.7005629099231221,-0.07714126322552567,0.579870877152201,0.8181217421505955,0.0861232702106953,0.155081001434251,0.3000686960864085,0.5183566384818487,0.5553871978547193,0.2688719919279238,0.4468799015312035,0.6860111691035647,1.135281394461757,0.2908756640053399,0.1661298067012758,0.9223967918602118,0.6913985246082717,0.1007719648412546,-0.05735231244843658,0.7858488523377072,805.0549450549451,793.7728937728938,794.1758241758242,787.7289377289378,827.6190476190476,823.992673992674,-0.512390,-0.048706,0.946716,1.278534,0.426178,-9.615173,1,2,1,1,2,94.000000
2024-12-21 15:46:45.805,0.7005629099231221,1.003966212906181,0.7133284077519817,0.8181217421505955,0.0861232702106953,0.4598510580288442,0.3139728597553328,0.5183566384818487,0.5553871978547193,0.4860080745320731,0.4595899551965922,0.6860111691035647,1.135281394461757,0.2199752355248722,0.02943678563541571,0.9223967918602118,0.6913985246082717,-0.3558418622942011,-0.237255812118786,0.7858488523377072,808.6813186813187,803.8461538461539,810.6959706959707,810.2930402930403,790.952380952381,686.996336996337,-0.568298,-0.145874,0.787842,9.091797,-1.024323,-3.775787,1,2,1,1,2,94.000000
2024-12-21 15:46:46.305,0.9483431445087543,1.324369372290775,1.168903001469597,0.8181217421505955,0.8942347540951459,0.7973211810034789,0.7268452251445177,0.5183566384818487,0.9525990797699648,0.7490578982384704,0.4852120430888006,0.6860111691035647,0.7148903165921096,0.1851898911655122,0.01153187788614135,0.9223967918602118,0.7387408884020192,-0.3210781428313482,-0.3534130985273575,0.7858488523377072,753.0769230769231,803.8461538461539,823.1868131868132,745.4212454212454,784.1025641025641,1160.842490842491,-0.536560,0.058777,0.732849,1.286011,-2.243042,0.859833,1,1,1,1,1,94.000000
2024-12-21 15:46:46.580,,,,,,,,,,,,,,,,,,,,,,,,,,,,,,,,,,,,,,,/muse/elements/blink
2024-12-21 15:46:46.805,0.9483431445087543,1.235719951076667,1.272930345507024,0.8181217421505955,0.8942347540951459,0.7067327722117902,0.8162634743771592,0.5183566384818487,0.9525990797699648,0.7490578982384704,0.4663986798612248,0.6860111691035647,0.7148903165921096,0.1822945737543375,-0.0225983925223777,0.9223967918602118,0.7387408884020192,-0.3048671566350682,-0.3892537071846064,0.7858488523377072,829.2307692307693,803.8461538461539,791.3553113553114,807.4725274725275,699.8901098901099,983.5531135531136,-0.475220,-0.067200,0.857727,1.241150,8.037567,5.158997,1,1,1,1,1,94.000000
2024-12-21 15:46:47.085,,,,,,,,,,,,,,,,,,,,,,,,,,,,,,,,,,,,,,,/muse/elements/blink
2024-12-21 15:46:47.313,0.9731860957777145,1.147659789046369,1.446722414049857,0.8181217421505955,0.9386502875683151,0.6342950678231641,1.013962771979284,0.5183566384818487,0.9522911445576977,0.7432618518586627,0.4159298152690732,0.6860111691035647,0.6685528548646118,0.09371802928033565,0.02842640864704772,0.9223967918602118,0.7407552004503216,-0.2924782153153038,-0.4363804055657537,0.7858488523377072,820.7692307692308,797.3992673992674,797.8021978021978,832.8571428571429,780.0732600732601,584.2490842490843,-0.706970,-0.014099,1.117676,-1.973877,-9.084320,-8.560944,1,1,1,1,1,94.000000
2024-12-21 15:46:47.805,0.9849760462866193,0.5608884124657566,1.438617513197441,0.8181217421505955,0.9616290848415927,0.3221295915271689,0.9733001877367526,0.5183566384818487,0.9450957416855844,0.2554865692011822,0.3827948400562126,0.6860111691035647,0.5988675073469881,0.03829796648513804,0.01775422588443563,0.9223967918602118,0.729492863783987,-0.3331812197459037,-0.4644291280404124,0.7858488523377072,797.3992673992674,800.6227106227107,790.952380952381,779.6703296703297,810.6959706959707,881.6117216117217,-0.590759,0.044922,0.731567,-1.151428,-2.736511,2.930908,1,1,1,1,1,94.000000
2024-12-21 15:46:48.304,0.9849760462866193,0.5210418563229415,1.438617513197441,0.8181217421505955,0.9616290848415927,0.3790707527752097,0.9733001877367526,0.5183566384818487,0.9450957416855844,0.2717710055577061,0.3827948400562126,0.6860111691035647,0.5988675073469881,-0.02063967245084919,0.01775422588443563,0.9223967918602118,0.729492863783987,-0.3876781755794516,-0.4644291280404124,0.7858488523377072,789.3406593406594,799.8168498168499,800.2197802197802,801.8315018315019,794.5787545787546,941.2454212454213,-0.551453,-0.049377,0.779846,-1.869202,1.300964,5.099182,1,1,1,1,1,94.000000
2024-12-21 15:46:48.747,,,,,,,,,,,,,,,,,,,,,,,,,,,,,,,,,,,,,,,/muse/elements/blink
2024-12-21 15:46:48.804,0.9849760462866193,0.4669546794829531,0.7690608986784538,0.8181217421505955,0.9616290848415927,0.3958203110831521,0.4510544004358135,0.5183566384818487,0.9450957416855844,0.3291959423603038,0.03191739687986385,0.6860111691035647,0.5988675073469881,-0.04225959284614868,-0.1289418007711686,0.9223967918602118,0.729492863783987,-0.5063617487118025,-0.3370996066443961,0.7858488523377072,826.4102564102565,804.2490842490843,809.8901098901099,826.4102564102565,801.025641025641,1120.14652014652,-0.474731,0.065552,0.774353,-1.891632,3.925323,-2.250519,1,1,1,1,1,94.000000
2024-12-21 15:46:49.252,,,,,,,,,,,,,,,,,,,,,,,,,,,,,,,,,,,,,,,/muse/elements/blink
2024-12-21 15:46:49.307,0.9849760462866193,0.5339647857896287,0.8343977811541144,0.8181217421505955,0.9616290848415927,0.4308872344662333,0.4263843427547624,0.5183566384818487,0.9450957416855844,0.5527109575473774,0.0437048102093617,0.6860111691035647,0.5988675073469881,-0.02962347191765845,-0.07401326877089244,0.9223967918602118,0.729492863783987,-0.4783493785427775,-0.2884685350672472,0.7858488523377072,843.3333333333334,795.7875457875458,791.3553113553114,829.2307692307693,870.3296703296703,974.6886446886447,-0.509277,0.055786,0.765381,-4.044952,1.697235,6.445007,1,2,1,1,2,94.000000
2024-12-21 15:46:49.804,0.9849760462866193,0.7469298978093166,0.8595328338887793,0.8181217421505955,0.9616290848415927,0.7208844934387326,0.3895440147860971,0.5183566384818487,0.9450957416855844,0.6680018010611828,-0.08054973863751802,0.6860111691035647,0.5988675073469881,-0.08208101958400423,-0.04875328222849987,0.9223967918602118,0.729492863783987,-0.4142932627050551,-0.3083593175703288,0.7858488523377072,806.6666666666667,803.8461538461539,795.7875457875458,807.0695970695971,786.9230769230769,921.5018315018315,-0.558472,-0.057190,0.778748,3.970184,0.553284,0.403748,1,2,1,1,2,94.000000
2024-12-21 15:46:50.048,,,,,,,,,,,,,,,,,,,,,,,,,,,,,,,,,,,,,,,/muse/elements/blink
2024-12-21 15:46:50.305,0.9849760462866193,0.8080775205452101,0.937419853631232,0.8181217421505955,0.9616290848415927,0.7310000968695282,0.3791235393768077,0.5183566384818487,0.9450957416855844,0.6680018010611828,-0.1982249527865769,0.6860111691035647,0.5988675073469881,-0.1415792591015169,0.005519411704641968,0.9223967918602118,0.729492863783987,-0.4194214737753953,-0.2206252335345298,0.7858488523377072,809.4871794871796,802.6373626373627,801.8315018315019,811.0989010989011,800.6227106227107,643.4798534798535,-0.562195,0.026367,0.722107,3.110352,-3.544006,-5.188904,1,2,1,1,2,94.000000
2024-12-21 15:46:50.748,,,,,,,,,,,,,,,,,,,,,,,,,,,,,,,,,,,,,,,/muse/elements/blink
2024-12-21 15:46:50.805,0.9849760462866193,0.8319180615013416,0.4206192749067431,0.8181217421505955,0.9616290848415927,0.6542657128181566,0.1984497981891429,0.5183566384818487,0.9450957416855844,0.5257110386212571,-0.1055106848003752,0.6860111691035647,0.5988675073469881,-0.04242663818452989,-0.4206219794134248,0.9223967918602118,0.729492863783987,-0.3737913418930596,-0.5335964953668824,0.7858488523377072,839.7069597069598,797.8021978021978,777.2527472527473,832.4542124542124,847.7655677655678,710.7692307692308,-0.736267,-0.049805,0.949524,1.420593,6.175842,5.794525,1,2,1,1,2,94.000000
2024-12-21 15:46:51.275,,,,,,,,,,,,,,,,,,,,,,,,,,,,,,,,,,,,,,,/muse/elements/blink
2024-12-21 15:46:51.305,0.9849760462866193,0.7363950362789793,0.4206192749067431,0.8181217421505955,0.9616290848415927,0.1608080743404502,0.1984497981891429,0.5183566384818487,0.9450957416855844,-0.03116598290360739,-0.1055106848003752,0.6860111691035647,0.5988675073469881,0.0003663166179560221,-0.4206219794134248,0.9223967918602118,0.729492863783987,-0.3620039599089561,-0.5335964953668824,0.7858488523377072,762.3443223443223,824.7985347985348,783.2967032967033,785.7142857142858,810.6959706959707,956.959706959707,-0.593323,-0.090759,0.733276,2.205658,-1.659851,-2.048645,1,2,1,1,2,94.000000
2024-12-21 15:46:51.364,,,,,,,,,,,,,,,,,,,,,,,,,,,,,,,,,,,,,,,/muse/elements/jaw_clench
2024-12-21 15:46:51.812,0.9849760462866193,0.7952958778811212,0.4206192749067431,0.8181217421505955,0.9616290848415927,0.1168855881327174,0.1984497981891429,0.5183566384818487,0.9450957416855844,-0.1869664093134275,-0.1055106848003752,0.6860111691035647,0.5988675073469881,0.07966991740329879,-0.4206219794134248,0.9223967918602118,0.729492863783987,-0.2619795092948197,-0.5335964953668824,0.7858488523377072,782.4908424908425,841.3186813186813,788.5347985347986,783.2967032967033,751.0622710622711,824.3956043956044,-0.558533,0.045227,0.744812,0.157013,-4.792633,-3.304749,1,2,1,1,2,94.000000
2024-12-21 15:46:52.305,0.9849760462866193,0.6864600663674063,0.4206192749067431,0.8181217421505955,0.9616290848415927,-0.2337723184849375,0.1984497981891429,0.5183566384818487,0.9450957416855844,-0.2218737746932171,-0.1055106848003752,0.6860111691035647,0.5988675073469881,-0.08265009673423174,-0.4206219794134248,0.9223967918602118,0.729492863783987,-0.2624222641942853,-0.5335964953668824,0.7858488523377072,782.0879120879121,803.8461538461539,799.8168498168499,793.7728937728938,857.4358974358975,1059.70695970696,-0.577881,-0.080200,0.862671,5.966492,-2.646790,7.716064,1,2,1,1,2,94.000000
2024-12-21 15:46:52.804,0.9849760462866193,0.6864600663674063,0.4206192749067431,0.8181217421505955,0.9616290848415927,-0.2337723184849375,0.1984497981891429,0.5183566384818487,0.9450957416855844,-0.2218737746932171,-0.1055106848003752,0.6860111691035647,0.5988675073469881,-0.08265009673423174,-0.4206219794134248,0.9223967918602118,0.729492863783987,-0.2624222641942853,-0.5335964953668824,0.7858488523377072,796.5934065934066,794.1758241758242,799.8168498168499,818.3516483516484,846.959706959707,754.2857142857143,-0.760742,-0.040771,1.174988,2.459869,-1.719666,-1.981354,1,2,1,1,2,94.000000
2024-12-21 15:46:53.305,0.9849760462866193,0.6864600663674063,0.251551480210387,0.8181217421505955,0.9616290848415927,-0.2337723184849375,0.0735598534104225,0.5183566384818487,0.9450957416855844,-0.2218737746932171,0.1333454997677237,0.6860111691035647,0.5988675073469881,-0.08265009673423174,-0.2058194393735594,0.9223967918602118,0.729492863783987,-0.2624222641942853,0.04229040482630473,0.7858488523377072,799.8168498168499,801.8315018315019,786.9230769230769,759.5238095238095,742.6007326007326,658.3882783882784,-0.575256,0.033569,0.765015,1.263580,-4.366455,0.942078,1,2,1,1,2,94.000000
2024-12-21 15:46:53.812,0.9849760462866193,1.027283971267595,0.4574727877661828,0.8181217421505955,0.9616290848415927,0.3008648680491108,0.3423366677590149,0.5183566384818487,0.9450957416855844,0.2491182994297536,0.4010846297684129,0.6860111691035647,0.5988675073469881,0.1094380658243894,0.08788696208284552,0.9223967918602118,0.729492863783987,-0.4741905840557739,0.1653163485359893,0.7858488523377072,823.1868131868132,808.2783882783883,803.040293040293,801.4285714285714,891.6849816849817,1134.249084249084,-0.526001,-0.062561,0.734558,-1.719666,-6.908569,3.805695,1,2,1,1,2,94.000000
2024-12-21 15:46:54.305,1.035861631124916,1.011358738602623,0.5078685377432423,0.8181217421505955,1.133778497331484,0.3730211376104089,0.418448257204281,0.5183566384818487,0.8272797515592105,0.2863680097781262,0.493248188305356,0.6860111691035647,0.942127208598049,0.1136553292220296,0.150893774419164,0.9223967918602118,0.7507798138401001,-0.4831356888129671,0.1409778111237301,0.7858488523377072,792.5641025641025,806.6666666666667,813.5164835164835,804.6520146520147,665.6410256410256,1168.901098901099,-0.419922,0.083801,0.727539,1.300964,-1.263580,3.872986,1,1,1,1,1,94.000000
2024-12-21 15:46:54.812,0.9413412759989072,0.9000521183143354,0.5074638490665272,0.8181217421505955,1.081926619165137,0.340874319254041,0.468513852591224,0.5183566384818487,0.8319985065512429,0.2863680097781262,0.493248188305356,0.6860111691035647,0.8904226840490538,0.06023150706370847,0.198881379330239,0.9223967918602118,0.6615396944186469,-0.4247682067569191,0.08851072357740164,0.7858488523377072,826.007326007326,801.025641025641,799.8168498168499,815.934065934066,773.6263736263736,640.6593406593407,-0.553467,0.069458,0.812073,-2.669220,-1.510315,2.699127,1,1,1,1,1,94.000000
2024-12-21 15:46:55.305,0.984293023170616,0.6690230979573016,0.494882919238345,0.8181217421505955,1.056693385680719,0.2966636962514052,0.4401782842038883,0.5183566384818487,0.7399859223995471,0.2855845039700726,0.4847671983433892,0.6860111691035647,0.9669791611267522,0.00851373837988726,0.08140504866425151,0.9223967918602118,0.5747747369853423,-0.3505018641758466,-0.1903818248060455,0.7858488523377072,809.4871794871796,794.981684981685,799.8168498168499,800.6227106227107,715.2014652014652,791.3553113553114,-0.555176,-0.050415,0.752747,2.123413,0.351410,-2.572021,1,1,1,1,1,94.000000
2024-12-21 15:46:55.631,,,,,,,,,,,,,,,,,,,,,,,,,,,,,,,,,,,,,,,/muse/elements/blink
2024-12-21 15:46:55.805,0.8687585707450152,0.7126465286814304,0.6071014281490251,0.8181217421505955,1.030513332607176,0.227179414813105,0.5609618464524,0.5183566384818487,0.6644638601961241,0.09150674457547557,0.2758135699176903,0.6860111691035647,0.8793301443579036,0.02066104032159382,-0.1251017390240246,0.9223967918602118,0.5067153861937311,-0.3327181107648569,-0.3411411593291504,0.7858488523377072,823.992673992674,806.6666666666667,797.3992673992674,802.2344322344322,854.2124542124542,848.974358974359,-0.576660,0.023132,0.861023,3.813171,-2.415009,-1.128998,1,1,1,1,1,94.000000
2024-12-21 15:46:56.305,0.8687585707450152,0.9915518644032879,0.7659914448300551,0.8181217421505955,1.030513332607176,0.2330299823636236,0.6947650264102204,0.5183566384818487,0.6644638601961241,0.3224196389860456,0.1656487331273412,0.6860111691035647,0.8793301443579036,0.03076712438025402,-0.2690640400821249,0.9223967918602118,0.5067153861937311,-0.3284556715268642,-0.3572001963177641,0.7858488523377072,811.5018315018315,794.5787545787546,801.8315018315019,768.7912087912088,922.3076923076924,517.7655677655678,-0.692932,-0.038025,1.086426,-0.134583,10.198364,2.930908,1,1,1,1,1,94.000000
2024-12-21 15:46:56.807,0.8687585707450152,1.010510981494072,0.9243601486886157,0.8181217421505955,1.030513332607176,0.3500968936947662,0.8122174608187606,0.5183566384818487,0.6644638601961241,0.3362168007640827,0.01023403045203232,0.6860111691035647,0.8793301443579036,0.02298233236964346,-0.3170869085956781,0.9223967918602118,0.5067153861937311,-0.3738048731979005,-0.3994252383589209,0.7858488523377072,798.6080586080586,808.6813186813187,790.5494505494506,815.934065934066,825.6043956043957,1020.622710622711,-0.518188,-0.025391,0.846680,3.820648,-9.129181,-4.710388,1,1,1,1,1,94.000000
2024-12-21 15:46:57.304,0.8687585707450152,0.8588336120744691,0.9196363204968203,0.8181217421505955,1.030513332607176,0.5120005467483654,0.3749683474567905,0.5183566384818487,0.6644638601961241,0.4225674067397554,0.4755037187453489,0.6860111691035647,0.8793301443579036,-0.02300704956194383,0.1496492098972921,0.9223967918602118,0.5067153861937311,-0.2914525142792342,0.0483628114273397,0.7858488523377072,798.6080586080586,800.2197802197802,799.0109890109891,804.6520146520147,755.0915750915751,1107.655677655678,-0.516113,0.010498,0.766418,-1.719666,-0.097198,-5.046844,1,2,1,1,2,94.000000
2024-12-21 15:46:57.478,,,,,,,,,,,,,,,,,,,,,,,,,,,,,,,,,,,,,,,/muse/elements/blink
2024-12-21 15:46:57.805,0.8687585707450152,0.6354368188556658,0.8823711834366781,0.8181217421505955,1.030513332607176,0.5237981061043989,0.4972757759493402,0.5183566384818487,0.6644638601961241,0.3982125033558899,0.526640247026538,0.6860111691035647,0.8793301443579036,-0.02381927143126703,0.02100110373136941,0.9223967918602118,0.5067153861937311,-0.3379861782084448,-0.008592504257665199,0.7858488523377072,720.8424908424909,799.0109890109891,813.919413919414,689.4139194139194,696.6666666666667,1041.978021978022,-0.455933,-0.085938,0.762207,-4.620667,-2.100983,1.136475,1,2,1,1,2,94.000000
2024-12-21 15:46:58.069,,,,,,,,,,,,,,,,,,,,,,,,,,,,,,,,,,,,,,,/muse/elements/blink
2024-12-21 15:46:58.305,0.8687585707450152,0.8434947300971992,0.8710787371234721,0.8181217421505955,1.030513332607176,0.4724449172179628,0.5088186049993429,0.5183566384818487,0.6644638601961241,0.4001083470825872,0.5213692090151573,0.6860111691035647,0.8793301443579036,0.02327995537177805,-0.002747771588823299,0.9223967918602118,0.5067153861937311,-0.2757239366821287,-0.01582965826996983,0.7858488523377072,793.3699633699634,800.2197802197802,798.2051282051282,781.2820512820513,726.8864468864469,672.4908424908425,-0.563293,-0.027832,0.870605,0.770111,-8.261871,-2.377625,1,2,1,1,2,94.000000
2024-12-21 15:46:58.805,0.8687585707450152,0.9572465221222584,0.7936712229790658,0.8181217421505955,1.030513332607176,0.3616466643628155,0.5872580627031003,0.5183566384818487,0.6644638601961241,0.3705222528026241,0.2211169112939584,0.6860111691035647,0.8793301443579036,-0.05837625859914124,-0.1873145076132375,0.9223967918602118,0.5067153861937311,-0.3143532989568059,-0.09959372965185881,0.7858488523377072,788.1318681318681,803.4432234432235,795.7875457875458,805.0549450549451,834.8717948717949,1175.750915750916,-0.549866,0.036438,0.747314,-0.052338,-1.143951,-4.508514,1,2,1,1,2,94.000000
2024-12-21 15:46:59.305,0.8687585707450152,0.8446135379940465,0.6801715769809267,0.8181217421505955,1.030513332607176,0.2935146667662442,0.5920369932138184,0.5183566384818487,0.6644638601961241,0.2670467622756115,0.1792944794581748,0.6860111691035647,0.8793301443579036,-0.05909262024429591,-0.1781459744606795,0.9223967918602118,0.5067153861937311,-0.1881134937697288,-0.1152923690451489,0.7858488523377072,806.6666666666667,804.6520146520147,802.2344322344322,826.8131868131868,769.5970695970697,624.9450549450549,-0.507507,-0.044312,0.732971,5.263672,2.250519,5.248718,1,2,1,1,2,94.000000
2024-12-21 15:46:59.811,1.186923815388829,0.7196782603094751,0.6894571113183642,0.8181217421505955,0.9247096874513654,0.3662722906968727,0.2400577898797789,0.5183566384818487,1.125737041870441,0.4461020796524052,-0.132764559472871,0.6860111691035647,0.8676473889734448,0.02490189981675518,-0.08343933302015692,0.9223967918602118,0.7383921926649947,-0.05387602424782627,-0.4135656135515346,0.7858488523377072,804.6520146520147,826.007326007326,805.0549450549451,809.4871794871796,726.4835164835165,1194.688644688645,-0.462891,0.071838,0.681702,-4.568329,13.473206,3.200073,1,1,1,1,1,94.000000
2024-12-21 15:47:00.305,1.186923815388829,0.7594977971034734,0.9413191792739878,0.8181217421505955,0.9247096874513654,0.4040832896552307,0.438704362317761,0.5183566384818487,1.125737041870441,0.6876231328460419,0.1497178895953247,0.6860111691035647,0.8676473889734448,0.110889834362521,-0.07532209280371378,0.9223967918602118,0.7383921926649947,0.003165552898198014,-0.4324570757312264,0.7858488523377072,799.8168498168499,796.1904761904763,799.4139194139194,761.5384615384615,742.1978021978023,761.1355311355312,-0.574158,0.019348,0.872192,-5.151520,3.775787,-1.891632,1,1,1,1,1,94.000000
2024-12-21 15:47:00.307,,,,,,,,,,,,,,,,,,,,,,,,,,,,,,,,,,,,,,,/muse/elements/blink
2024-12-21 15:47:00.504,,,,,,,,,,,,,,,,,,,,,,,,,,,,,,,,,,,,,,,/muse/elements/blink
2024-12-21 15:47:00.805,1.220745705296303,0.9387908059342565,0.9905451878345978,0.8181217421505955,0.960149866224187,0.5384142364456636,0.4646922451576552,0.5183566384818487,1.125737041870441,0.6876231328460419,0.1497178895953247,0.6860111691035647,0.809609852054918,0.2182555769910144,-0.06534483620156563,0.9223967918602118,0.6736417014282778,0.05141387330971196,-0.4714635454499888,0.7858488523377072,771.6117216117216,801.4285714285714,804.2490842490843,784.5054945054945,783.2967032967033,695.0549450549451,-0.588989,-0.062683,0.747131,2.549591,-1.517792,0.388794,1,1,1,1,1,94.000000
2024-12-21 15:47:01.307,1.220745705296303,1.170237052237174,1.209184658150846,0.8181217421505955,0.960149866224187,0.7322007503461951,0.6517764243135653,0.5183566384818487,1.125737041870441,0.6876231328460419,0.1368735931158203,0.6860111691035647,0.809609852054918,0.3028020371938833,-0.06714477726893801,0.9223967918602118,0.6736417014282778,0.1414286146548674,-0.5475227659717489,0.7858488523377072,659.5970695970697,795.3846153846154,816.7399267399268,635.4212454212454,844.9450549450549,1184.615384615385,-0.581665,0.003540,0.755432,7.416992,-5.630035,-5.532837,1,1,1,1,1,94.000000
2024-12-21 15:47:01.536,,,,,,,,,,,,,,,,,,,,,,,,,,,,,,,,,,,,,,,/muse/elements/blink
2024-12-21 15:47:01.804,1.220745705296303,0.7088309772000374,1.209184658150846,0.8181217421505955,0.960149866224187,0.5494809434526645,0.6517764243135653,0.5183566384818487,1.125737041870441,-0.01462275344435536,0.1368735931158203,0.6860111691035647,0.809609852054918,0.05327608053230583,-0.06714477726893801,0.9223967918602118,0.6736417014282778,-0.1279287604662411,-0.5475227659717489,0.7858488523377072,842.9304029304029,801.8315018315019,793.3699633699634,857.8388278388279,913.8461538461539,1481.575091575092,-0.493103,-0.070190,0.701660,0.201874,11.962891,3.843079,1,1,1,1,1,94.000000
2024-12-21 15:47:02.240,,,,,,,,,,,,,,,,,,,,,,,,,,,,,,,,,,,,,,,/muse/elements/blink
2024-12-21 15:47:02.314,1.220745705296303,0.7088309772000374,1.209184658150846,0.8181217421505955,0.960149866224187,0.5494809434526645,0.6517764243135653,0.5183566384818487,1.125737041870441,-0.01462275344435536,0.1368735931158203,0.6860111691035647,0.809609852054918,0.05327608053230583,-0.06714477726893801,0.9223967918602118,0.6736417014282778,-0.1279287604662411,-0.5475227659717489,0.7858488523377072,818.3516483516484,798.6080586080586,788.1318681318681,775.2380952380953,923.5164835164835,763.956043956044,-0.703552,-0.062134,0.995605,-3.588867,-0.635529,-3.304749,1,1,1,1,1,94.000000
2024-12-21 15:47:02.805,1.220745705296303,0.7088309772000374,1.209184658150846,0.8181217421505955,0.960149866224187,0.5494809434526645,0.6517764243135653,0.5183566384818487,1.125737041870441,-0.01462275344435536,0.1368735931158203,0.6860111691035647,0.809609852054918,0.05327608053230583,-0.06714477726893801,0.9223967918602118,0.6736417014282778,-0.1279287604662411,-0.5475227659717489,0.7858488523377072,805.4578754578755,778.0586080586081,828.4249084249085,860.6593406593407,803.040293040293,638.6446886446887,-0.589294,-0.002136,0.741638,-3.050537,0.216827,4.949646,1,2,1,1,2,94.000000
2024-12-21 15:47:03.305,1.220745705296303,0.7088309772000374,1.209184658150846,0.8181217421505955,0.960149866224187,0.5494809434526645,0.6517764243135653,0.5183566384818487,1.125737041870441,-0.01462275344435536,0.1368735931158203,0.6860111691035647,0.809609852054918,0.05327608053230583,-0.06714477726893801,0.9223967918602118,0.6736417014282778,-0.1279287604662411,-0.5475227659717489,0.7858488523377072,784.5054945054945,776.0439560439561,806.2637362637363,799.4139194139194,831.2454212454213,985.9706959706961,-0.538696,-0.049438,0.791626,4.815063,-8.972168,3.671112,1,2,1,1,2,94.000000
2024-12-21 15:47:03.638,,,,,,,,,,,,,,,,,,,,,,,,,,,,,,,,,,,,,,,/muse/elements/blink
2024-12-21 15:47:03.805,1.220745705296303,0.7088309772000374,1.209184658150846,0.8181217421505955,0.960149866224187,0.5494809434526645,0.6517764243135653,0.5183566384818487,1.125737041870441,-0.01462275344435536,0.1368735931158203,0.6860111691035647,0.809609852054918,0.05327608053230583,-0.06714477726893801,0.9223967918602118,0.6736417014282778,-0.1279287604662411,-0.5475227659717489,0.7858488523377072,892.4908424908425,820.3663003663004,786.5201465201466,819.5604395604396,730.1098901098901,998.4615384615385,-0.471924,0.069641,0.681824,0.007477,3.760834,0.568237,1,2,1,1,2,94.000000
2024-12-21 15:47:04.305,1.220745705296303,0.7088309772000374,1.209184658150846,0.8181217421505955,0.960149866224187,0.5494809434526645,0.6517764243135653,0.5183566384818487,1.125737041870441,-0.01462275344435536,0.1368735931158203,0.6860111691035647,0.809609852054918,0.05327608053230583,-0.06714477726893801,0.9223967918602118,0.6736417014282778,-0.1279287604662411,-0.5475227659717489,0.7858488523377072,838.4981684981685,802.2344322344322,796.5934065934066,805.8608058608058,776.4468864468864,857.032967032967,-0.587524,-0.000549,0.860718,-0.366364,0.082245,-1.368256,1,2,1,1,2,94.000000
2024-12-21 15:47:04.804,1.220745705296303,0.7088309772000374,1.127982437794638,0.8181217421505955,0.960149866224187,0.5494809434526645,0.4681104641384662,0.5183566384818487,1.125737041870441,-0.01462275344435536,0.2323698134183727,0.6860111691035647,0.809609852054918,0.05327608053230583,0.02104772697411829,0.9223967918602118,0.6736417014282778,-0.1279287604662411,-0.2509559603052258,0.7858488523377072,838.4981684981685,809.8901098901099,808.6813186813187,846.959706959707,730.1098901098901,865.8974358974359,-0.587219,0.013489,0.718506,-3.349609,-4.665527,3.693542,1,2,1,1,2,94.000000
2024-12-21 15:47:05.279,,,,,,,,,,,,,,,,,,,,,,,,,,,,,,,,,,,,,,,/muse/elements/blink
2024-12-21 15:47:05.310,1.220745705296303,0.7088309772000374,0.5378651170464799,0.8181217421505955,0.960149866224187,0.5494809434526645,0.3787258124117567,0.5183566384818487,1.125737041870441,-0.01462275344435536,0.210651485647604,0.6860111691035647,0.809609852054918,0.05327608053230583,-0.2100991374488585,0.9223967918602118,0.6736417014282778,-0.1279287604662411,-0.2484242898991068,0.7858488523377072,825.6043956043957,798.6080586080586,792.967032967033,840.9157509157509,737.3626373626374,636.2271062271062,-0.513367,0.067139,0.689270,0.934601,-6.871185,-1.151428,1,2,1,1,2,94.000000
2024-12-21 15:47:05.804,1.220745705296303,0.7088309772000374,0.5378651170464799,0.8181217421505955,0.960149866224187,0.5494809434526645,0.3787258124117567,0.5183566384818487,1.125737041870441,-0.01462275344435536,0.210651485647604,0.6860111691035647,0.809609852054918,0.05327608053230583,-0.2100991374488585,0.9223967918602118,0.6736417014282778,-0.1279287604662411,-0.2484242898991068,0.7858488523377072,830.4395604395604,813.919413919414,786.9230769230769,878.3882783882784,938.8278388278388,1363.516483516484,-0.522522,-0.044800,0.784180,3.357086,-6.048737,1.951447,1,2,1,1,2,94.000000
2024-12-21 15:47:06.304,1.220745705296303,0.5767933513451005,0.5257590681641605,0.8181217421505955,0.960149866224187,0.1030610214499152,0.3929628649363426,0.5183566384818487,1.125737041870441,0.1133971307878353,0.1922743822336641,0.6860111691035647,0.809609852054918,0.2230551460671271,-0.2196890906493537,0.9223967918602118,0.6736417014282778,0.1733284686969975,-0.2876401816091013,0.7858488523377072,803.4432234432235,780.4761904761905,798.6080586080586,763.5531135531136,916.2637362637363,529.4505494505495,-0.614990,-0.033875,1.043030,-4.927216,10.265656,-3.065491,1,2,1,1,2,94.000000
2024-12-21 15:47:06.807,1.220745705296303,0.640242184266639,0.5277036975228068,0.8181217421505955,0.960149866224187,-0.1565741962927232,0.4117354443415054,0.5183566384818487,1.125737041870441,-0.01132178711067956,0.1715049421604154,0.6860111691035647,0.809609852054918,0.2045628574388128,-0.2096902745850615,0.9223967918602118,0.6736417014282778,0.3613891892626018,-0.3049420665408493,0.7858488523377072,838.0952380952381,831.6483516483516,792.5641025641025,819.1575091575091,740.5860805860806,641.8681318681319,-0.575073,0.056702,0.757996,-9.607697,0.142059,7.932892,1,2,1,1,2,94.000000
2024-12-21 15:47:07.310,1.220745705296303,0.7086608805239137,1.123707814809314,0.8181217421505955,0.960149866224187,-0.09113344772927497,0.7772191146799572,0.5183566384818487,1.125737041870441,0.01480186053019088,0.2430703456262678,0.6860111691035647,0.809609852054918,0.1985384724754325,-0.1428069532240051,0.9223967918602118,0.6736417014282778,0.3318720352050558,0.06976633456096655,0.7858488523377072,742.6007326007326,799.0109890109891,809.0842490842491,757.5091575091575,832.8571428571429,867.5091575091575,-0.581421,-0.058105,0.763611,5.577698,1.128998,-0.119629,1,2,1,1,2,94.000000
2024-12-21 15:47:07.583,,,,,,,,,,,,,,,,,,,,,,,,,,,,,,,,,,,,,,,/muse/elements/blink
2024-12-21 15:47:07.804,1.220745705296303,0.8762869898439313,1.161838579905115,0.8181217421505955,0.960149866224187,0.2252280391832858,0.7285150182337349,0.5183566384818487,1.125737041870441,0.3305994106561541,0.2532601002080989,0.6860111691035647,0.809609852054918,0.2179166458110107,-0.1621962370226329,0.9223967918602118,0.6736417014282778,0.2368455836432068,-0.06026631869728725,0.7858488523377072,826.007326007326,767.1794871794872,811.9047619047619,844.1391941391942,832.4542124542124,1139.89010989011,-0.644348,-0.024475,0.775024,6.220703,-4.650574,-8.770294,1,2,1,1,2,94.000000
2024-12-21 15:47:07.914,,,,,,,,,,,,,,,,,,,,,,,,,,,,,,,,,,,,,,,/muse/elements/blink
2024-12-21 15:47:08.304,1.220745705296303,1.037447180394867,1.161838579905115,0.8181217421505955,0.960149866224187,0.4489208490912519,0.7285150182337349,0.5183566384818487,1.125737041870441,0.3575878770383023,0.2532601002080989,0.6860111691035647,0.809609852054918,0.2431619276795062,-0.1621962370226329,0.9223967918602118,0.6736417014282778,-0.03757973028900437,-0.06026631869728725,0.7858488523377072,798.6080586080586,807.4725274725275,800.6227106227107,771.2087912087912,695.0549450549451,1114.505494505494,-0.591370,-0.060852,0.799988,1.054230,7.200165,1.226196,1,2,1,1,2,94.000000
2024-12-21 15:47:08.804,1.220745705296303,1.063894741358738,1.282524517148849,0.8181217421505955,0.960149866224187,0.5219629251628983,0.7888142811534672,0.5183566384818487,1.125737041870441,0.3547473395405106,0.2409195169707586,0.6860111691035647,0.809609852054918,0.2539723399351673,-0.1906039871856757,0.9223967918602118,0.6736417014282778,-0.08853072833843291,-0.2158514525425915,0.7858488523377072,825.2014652014652,798.6080586080586,797.3992673992674,802.6373626373627,811.9047619047619,672.893772893773,-0.694580,-0.043701,0.970215,0.882263,-10.848846,-10.983429,1,2,1,1,2,94.000000
2024-12-21 15:47:09.310,1.220745705296303,0.9578477249777773,1.282524517148849,0.8181217421505955,0.960149866224187,0.3702206950276283,0.7888142811534672,0.5183566384818487,1.125737041870441,0.3248854848590936,0.2409195169707586,0.6860111691035647,0.809609852054918,0.2837160469626423,-0.1906039871856757,0.9223967918602118,0.6736417014282778,-0.04918801076691826,-0.2158514525425915,0.7858488523377072,841.3186813186813,777.6556776556777,814.3223443223443,832.8571428571429,835.6776556776557,667.6556776556777,-0.528259,0.037903,0.796631,-2.220612,-8.994598,4.104767,1,2,1,1,2,94.000000
2024-12-21 15:47:09.477,,,,,,,,,,,,,,,,,,,,,,,,,,,,,,,,,,,,,,,/muse/elements/blink
2024-12-21 15:47:09.804,1.220745705296303,0.9578477249777773,1.282524517148849,0.8181217421505955,0.960149866224187,0.3702206950276283,0.7888142811534672,0.5183566384818487,1.125737041870441,0.3248854848590936,0.2409195169707586,0.6860111691035647,0.809609852054918,0.2837160469626423,-0.1906039871856757,0.9223967918602118,0.6736417014282778,-0.04918801076691826,-0.2158514525425915,0.7858488523377072,817.948717948718,812.3076923076924,806.2637362637363,812.3076923076924,844.9450549450549,686.996336996337,-0.557922,-0.048035,0.748291,0.687866,-1.450500,0.538330,1,2,1,1,2,94.000000
2024-12-21 15:47:10.304,1.220745705296303,0.9578477249777773,1.282524517148849,0.8181217421505955,0.960149866224187,0.3702206950276283,0.7888142811534672,0.5183566384818487,1.125737041870441,0.3248854848590936,0.2409195169707586,0.6860111691035647,0.809609852054918,0.2837160469626423,-0.1906039871856757,0.9223967918602118,0.6736417014282778,-0.04918801076691826,-0.2158514525425915,0.7858488523377072,784.9084249084249,799.4139194139194,801.025641025641,812.7106227106227,794.981684981685,573.7728937728938,-0.589783,0.033203,0.828491,0.994415,-5.450592,0.545807,1,2,1,1,2,94.000000
2024-12-21 15:47:10.804,1.220745705296303,0.3223293877665164,1.282524517148849,0.8181217421505955,0.960149866224187,-0.03196444083029965,0.7888142811534672,0.5183566384818487,1.125737041870441,-0.1259176941561104,0.2409195169707586,0.6860111691035647,0.809609852054918,-0.0009390512560746635,-0.1906039871856757,0.9223967918602118,0.6736417014282778,-0.50736015876617,-0.2158514525425915,0.7858488523377072,816.3369963369963,796.5934065934066,792.1611721611722,802.2344322344322,848.974358974359,676.9230769230769,-0.517456,-0.080505,0.758789,0.254211,14.168549,2.257996,1,2,1,1,2,94.000000
2024-12-21 15:47:11.304,0.8516890781835033,0.3981305632716788,0.5692456039717501,0.5762409647512939,0.6541121714192836,0.09957599926934871,0.5573519325824665,0.4881561776546914,0.7977785062411087,0.1803511731987914,0.2331815876255558,0.3188671171673528,0.7258932206536104,-0.02703106741662471,-0.2325620760559352,0.6485003393362803,0.6568418330517976,-0.5787712827577645,-0.7078623678213514,0.4117824586385364,794.1758241758242,798.2051282051282,790.5494505494506,879.1941391941392,898.5347985347986,672.893772893773,-0.574402,0.021484,0.826233,-1.764526,-5.039368,2.601929,1,1,1,1,1,94.000000
2024-12-21 15:47:11.654,,,,,,,,,,,,,,,,,,,,,,,,,,,,,,,,,,,,,,,/muse/elements/blink
2024-12-21 15:47:11.654,,,,,,,,,,,,,,,,,,,,,,,,,,,,,,,,,,,,,,,/muse/elements/jaw_clench
2024-12-21 15:47:11.804,0.8516890781835033,0.8512818149576172,0.923356361254342,0.5762409647512939,0.6541121714192836,0.4655837256738153,0.8562794495003364,0.4881561776546914,0.7977785062411087,0.6073110081331183,0.6134032588734706,0.3188671171673528,0.7258932206536104,-0.01710135312680084,-0.08706284227473567,0.6485003393362803,0.6568418330517976,-0.5746178085823822,-0.4657278399914994,0.4117824586385364,877.5824175824176,831.6483516483516,795.3846153846154,824.3956043956044,772.014652014652,939.2307692307693,-0.578979,-0.026672,0.723755,-2.856140,5.585175,-9.039459,1,1,1,1,1,94.000000
2024-12-21 15:47:12.303,0.9181224125090304,1.05170218143485,0.9940853630392166,0.6197362704156532,0.6728159569718689,0.6392842452245071,0.9426341976257594,0.5130912034379129,0.7977785062411087,0.6073110081331183,0.5984295693697779,0.3015840254839008,0.7273145739392146,-0.04023128744945367,-0.06095140400855541,0.6569970104369041,0.6179688001689316,-0.6179149225481223,-0.4162883157692783,0.4449239140012254,762.7472527472528,799.0109890109891,801.4285714285714,802.2344322344322,834.0659340659341,837.6923076923077,-0.533569,-0.078918,0.823242,4.859924,-10.026398,-0.613098,1,1,1,1,1,94.000000
2024-12-21 15:47:12.803,0.9181224125090304,1.288538116116208,1.145275284669247,0.6197362704156532,0.6728159569718689,0.832426759362371,1.056265671470737,0.5130912034379129,0.7977785062411087,0.5864775085215015,0.6180032849553755,0.3015840254839008,0.7273145739392146,-0.07245790448670332,0.1514895295649058,0.6569970104369041,0.6179688001689316,-0.5721167980093181,-0.2014131693664163,0.4449239140012254,778.8644688644689,796.996336996337,828.021978021978,879.5970695970697,818.7545787545788,772.4175824175825,-0.511658,0.034485,0.888855,-5.196381,11.708679,0.127106,1,1,1,1,1,94.000000
2024-12-21 15:47:13.311,0.9181224125090304,-0.2381487943694476,0.7815172394188231,0.6197362704156532,0.6728159569718689,-0.4740751117080418,0.4980005136004361,0.5130912034379129,0.7977785062411087,-0.3893767738556017,0.3028302390643404,0.3015840254839008,0.7273145739392146,0.2464851488641463,0.3401758757843712,0.6569970104369041,0.6179688001689316,-0.2209694493273957,0.01277578824985001,0.4449239140012254,794.1758241758242,802.6373626373627,800.6227106227107,781.2820512820513,767.5824175824176,762.3443223443223,-0.545837,0.035156,0.875061,1.091614,-6.415100,-1.659851,1,1,1,1,1,94.000000
2024-12-21 15:47:13.803,0.9181224125090304,-0.2659405286069959,0.7523172865754831,0.6197362704156532,0.6728159569718689,-0.5063110244042478,0.3724160370834646,0.5130912034379129,0.7977785062411087,-0.3456691453885787,0.3048027924689942,0.3015840254839008,0.7273145739392146,0.1386051953112018,0.2958785641651241,0.6569970104369041,0.6179688001689316,-0.2479383979193322,0.117960039629669,0.4449239140012254,783.6996336996338,805.8608058608058,809.4871794871796,777.2527472527473,769.5970695970697,1063.333333333333,-0.536865,-0.042053,0.692505,2.302856,1.076660,-0.523376,1,1,1,1,1,94.000000
2024-12-21 15:47:14.005,,,,,,,,,,,,,,,,,,,,,,,,,,,,,,,,,,,,,,,/muse/elements/blink
2024-12-21 15:47:14.303,0.9181224125090304,0.3750027718183979,0.7712883654740135,0.6197362704156532,0.6728159569718689,0.1313171885626507,0.305397681488666,0.5130912034379129,0.7977785062411087,0.05966685699445273,0.3181981051534384,0.3015840254839008,0.7273145739392146,0.04536042588743782,0.2543621288232402,0.6569970104369041,0.6179688001689316,-0.2599946879312201,0.0922220385902154,0.4449239140012254,816.7399267399268,797.3992673992674,801.4285714285714,814.7252747252747,873.1501831501831,778.0586080586081,-0.561401,0.059082,0.811768,2.347717,2.287903,-3.887939,1,2,1,1,2,94.000000
2024-12-21 15:47:14.803,0.9181224125090304,1.046128693890402,0.7860637274590144,0.6197362704156532,0.6728159569718689,0.7103158449500553,0.1249211121317174,0.5130912034379129,0.7977785062411087,0.3504251122800251,0.2480895058744141,0.3015840254839008,0.7273145739392146,-0.07340645533360651,0.1893776837044504,0.6569970104369041,0.6179688001689316,-0.2024920334468314,0.1407419701459804,0.4449239140012254,770.8058608058608,795.3846153846154,817.948717948718,817.948717948718,800.6227106227107,1195.897435897436,-0.491150,-0.095947,0.671753,-2.945862,0.889740,-1.772003,1,2,1,1,2,94.000000
2024-12-21 15:47:15.308,0.9181224125090304,1.072293429405619,0.8101698346101059,0.6197362704156532,0.6728159569718689,0.7207287681917013,0.2937019226459054,0.5130912034379129,0.7977785062411087,0.3578659895296424,0.1038440018993067,0.3015840254839008,0.7273145739392146,-0.09685098312388932,-0.00186935152899049,0.6569970104369041,0.6179688001689316,-0.04230842477050894,-0.2275587105983852,0.4449239140012254,793.3699633699634,797.3992673992674,796.996336996337,809.0842490842491,842.9304029304029,751.8681318681319,-0.545166,0.033752,0.874939,-2.400055,6.086121,-4.889832,1,2,1,1,2,94.000000
2024-12-21 15:47:15.804,0.9181224125090304,1.039043093212721,0.6897066589561736,0.6197362704156532,0.6728159569718689,0.6610231545311098,0.4311130149274023,0.5130912034379129,0.7977785062411087,0.3578659895296424,0.05135024647521858,0.3015840254839008,0.7273145739392146,-0.09250845610145347,-0.02247098313351503,0.6569970104369041,0.6179688001689316,-0.03540090045152949,-0.3318372950556329,0.4449239140012254,867.1062271062272,799.4139194139194,788.9377289377289,844.9450549450549,916.6666666666667,826.8131868131868,-0.557922,0.018005,0.797913,-1.517792,-7.110443,3.730927,1,2,1,1,2,94.000000
2024-12-21 15:47:15.829,,,,,,,,,,,,,,,,,,,,,,,,,,,,,,,,,,,,,,,/muse/elements/blink
2024-12-21 15:47:16.304,0.9181224125090304,0.8285278965818044,0.6897066589561736,0.6197362704156532,0.6728159569718689,0.6754957752547984,0.4311130149274023,0.5130912034379129,0.7977785062411087,0.5734019607498173,0.05135024647521858,0.3015840254839008,0.7273145739392146,-0.09507172094934133,-0.02247098313351503,0.6569970104369041,0.6179688001689316,-0.1038659667261642,-0.3318372950556329,0.4449239140012254,803.4432234432235,809.4871794871796,796.1904761904763,806.2637362637363,767.1794871794872,611.2454212454213,-0.557800,-0.012207,0.705017,1.383209,-2.586975,1.480408,1,2,1,1,2,94.000000
2024-12-21 15:47:16.804,0.9181224125090304,0.9108920772886433,0.6461781523977767,0.6197362704156532,0.6728159569718689,0.7339661827835077,0.4231514367240881,0.5130912034379129,0.7977785062411087,0.5307895190139746,-0.08349433204008416,0.3015840254839008,0.7273145739392146,-0.168931211472283,-0.02534535745887961,0.6569970104369041,0.6179688001689316,-0.3457366483797593,-0.3061964206028462,0.4449239140012254,800.2197802197802,801.025641025641,807.4725274725275,829.2307692307693,775.2380952380953,861.4652014652015,-0.543762,0.038879,0.820190,2.721558,-6.048737,1.525269,1,2,1,1,2,94.000000
2024-12-21 15:47:17.304,0.9181224125090304,0.9029593069193277,-0.01234288175507024,0.6197362704156532,0.6728159569718689,0.7196454487008868,-0.2848502218548578,0.5130912034379129,0.7977785062411087,0.5165807039393776,0.04616761936704036,0.3015840254839008,0.7273145739392146,-0.06343606763104773,0.05677019367530488,0.6569970104369041,0.6179688001689316,-0.3511651319269018,0.009369748070548292,0.4449239140012254,826.8131868131868,805.4578754578755,792.1611721611722,802.2344322344322,781.2820512820513,916.6666666666667,-0.540100,-0.147217,0.924133,4.949646,-6.048737,-2.901001,1,2,1,1,2,94.000000
2024-12-21 15:47:17.804,0.9181224125090304,0.5609262285913781,0.1631497567599739,0.6197362704156532,0.6728159569718689,0.08603198350945516,-0.1232814541348053,0.5130912034379129,0.7977785062411087,0.04639768041072241,0.2002773297562492,0.3015840254839008,0.7273145739392146,0.07275602128777997,0.07739879295646139,0.6569970104369041,0.6179688001689316,-0.2082717111516884,0.08219717937770132,0.4449239140012254,819.1575091575091,777.6556776556777,810.2930402930403,823.1868131868132,735.3479853479854,617.2893772893773,-0.743713,0.046021,1.047668,0.044861,1.046753,6.415100,1,2,1,1,2,94.000000
2024-12-21 15:47:18.304,0.9181224125090304,0.3801871959399409,0.4362981351154553,0.6197362704156532,0.6728159569718689,-0.2637541320920974,0.297121056486091,0.5130912034379129,0.7977785062411087,-0.0419966047724875,0.4686044143218966,0.3015840254839008,0.7273145739392146,0.1834712189786103,0.2081753352061453,0.6569970104369041,0.6179688001689316,-0.1291199412158262,0.1444976648788616,0.4449239140012254,796.5934065934066,817.5457875457876,804.2490842490843,803.4432234432235,681.3553113553114,880.4029304029305,-0.604492,0.078247,0.720276,0.254211,-7.603912,0.291595,1,2,1,1,2,94.000000
2024-12-21 15:47:18.804,0.9181224125090304,0.4030199424697342,0.6066575282595171,0.6197362704156532,0.6728159569718689,-0.2144605874047256,0.4268433057219048,0.5130912034379129,0.7977785062411087,-0.06769657916191892,0.5005975888419923,0.3015840254839008,0.7273145739392146,0.2406876858925983,0.1863829941163713,0.6569970104369041,0.6179688001689316,-0.04472448729131137,0.1115544670593667,0.4449239140012254,830.0366300366301,809.8901098901099,805.0549450549451,790.5494505494506,760.3296703296703,691.025641025641,-0.564880,-0.037231,0.662842,-0.837402,-2.691650,-1.712189,1,2,1,1,2,94.000000
2024-12-21 15:47:19.304,0.9181224125090304,1.020542452475902,0.8476032662588724,0.6197362704156532,0.6728159569718689,0.6352947133881285,0.5660003528687886,0.5130912034379129,0.7977785062411087,0.02787925249181803,0.5297561733898655,0.3015840254839008,0.7273145739392146,0.1306260602407794,0.1510192800001169,0.6569970104369041,0.6179688001689316,0.2331815440320223,0.0008684022333457094,0.4449239140012254,811.0989010989011,783.6996336996338,771.2087912087912,813.5164835164835,795.7875457875458,871.941391941392,-0.590942,-0.018188,0.801636,2.990723,-4.605713,-5.480499,1,2,1,1,2,94.000000
2024-12-21 15:47:19.399,,,,,,,,,,,,,,,,,,,,,,,,,,,,,,,,,,,,,,,/muse/elements/blink
2024-12-21 15:47:19.804,0.9181224125090304,0.9602845347649978,1.28544836916933,0.6197362704156532,0.6728159569718689,0.6463550522437177,1.042802324080465,0.5130912034379129,0.7977785062411087,0.2939256902488171,0.7226247706847365,0.3015840254839008,0.7273145739392146,-0.05630430994195428,0.006899694291968317,0.6569970104369041,0.6179688001689316,0.07769688576483488,-0.2910256358560677,0.4449239140012254,813.919413919414,789.7435897435897,795.7875457875458,808.6813186813187,873.1501831501831,1049.230769230769,-0.671692,-0.054749,1.029419,1.248627,8.516083,2.803802,1,2,1,1,2,94.000000
2024-12-21 15:47:20.304,0.9181224125090304,0.8658588096242281,1.402715384225212,0.6197362704156532,0.6728159569718689,0.5744015260527127,1.156087865033662,0.5130912034379129,0.7977785062411087,0.2947740945630616,0.6697676620964325,0.3015840254839008,0.7273145739392146,-0.05584704902684615,0.02319545312919551,0.6569970104369041,0.6179688001689316,-0.05287851400250417,-0.3696856419573337,0.4449239140012254,832.8571428571429,795.3846153846154,770,840.9157509157509,999.6703296703297,2.820512820512821,-0.633057,0.002014,0.950256,-2.953339,17.652740,-2.362671,1,2,1,1,2,94.000000
2024-12-21 15:47:20.424,,,,,,,,,,,,,,,,,,,,,,,,,,,,,,,,,,,,,,,/muse/elements/jaw_clench
2024-12-21 15:47:20.806,0.9181224125090304,0.7497809355827451,1.334914764256292,0.6197362704156532,0.6728159569718689,0.5075878866694332,1.212536750310792,0.5130912034379129,0.7977785062411087,0.349426313917032,0.8393957300505455,0.3015840254839008,0.7273145739392146,0.08835652211781009,0.2800200274907224,0.6569970104369041,0.6179688001689316,-0.2094872511604819,0.4534248956132541,0.4449239140012254,831.2454212454213,768.7912087912088,813.919413919414,829.2307692307693,735.7509157509157,836.4835164835165,-0.535889,0.073792,0.834900,-3.401947,-16.837769,3.775787,1,2,1,1,2,94.000000
2024-12-21 15:47:20.926,,,,,,,,,,,,,,,,,,,,,,,,,,,,,,,,,,,,,,,/muse/elements/jaw_clench
2024-12-21 15:47:21.304,0.9181224125090304,0.715377209415844,0.7761975665055514,0.6197362704156532,0.6728159569718689,0.5032246768118518,0.7711914138708883,0.5130912034379129,0.7977785062411087,0.2542842491593147,0.7648380638413882,0.3015840254839008,0.7273145739392146,0.1486827830012779,0.4531342029336875,0.6569970104369041,0.6179688001689316,-0.2476701633508514,0.6659489405257514,0.4449239140012254,776.8498168498169,793.3699633699634,802.6373626373627,803.8461538461539,788.9377289377289,990.8058608058608,-0.558228,-0.033020,0.704041,5.443115,-2.078552,-2.826233,1,2,1,1,2,94.000000
2024-12-21 15:47:21.810,0.9181224125090304,0.7353997664316905,0.7820931464040369,0.6197362704156532,0.6728159569718689,0.50692155466038,0.7205933653182953,0.5130912034379129,0.7977785062411087,0.1526002239347982,0.7649353272174954,0.3015840254839008,0.7273145739392146,0.2611039425349722,0.4038601308233069,0.6569970104369041,0.6179688001689316,-0.09629275686097105,0.5991400247831035,0.4449239140012254,788.5347985347986,796.5934065934066,806.6666666666667,817.1428571428571,768.7912087912088,686.996336996337,-0.512024,0.046448,0.677063,-1.487885,-0.074768,3.192596,1,2,1,1,2,94.000000
2024-12-21 15:47:21.910,,,,,,,,,,,,,,,,,,,,,,,,,,,,,,,,,,,,,,,/muse/elements/jaw_clench
2024-12-21 15:47:22.303,0.9181224125090304,0.8521535220970322,0.915576557294523,0.6197362704156532,0.6728159569718689,0.6156981739313869,0.4118370283650378,0.5130912034379129,0.7977785062411087,0.1526002239347982,0.7337763872193823,0.3015840254839008,0.7273145739392146,0.3515555614142527,0.491813999563766,0.6569970104369041,0.6179688001689316,0.01220961845875267,0.5679764722668624,0.4449239140012254,794.981684981685,797.3992673992674,804.6520146520147,811.9047619047619,905.3846153846154,1118.937728937729,-0.577393,-0.070740,0.704834,1.046753,3.439331,3.289795,1,2,1,1,2,94.000000
2024-12-21 15:47:22.804,0.9181224125090304,0.6111000087084956,0.9450451208635057,0.6197362704156532,0.6728159569718689,-0.07923245246385342,0.4355735097074344,0.5130912034379129,0.7977785062411087,0.02144663597350095,0.7337763872193823,0.3015840254839008,0.7273145739392146,0.148775253259522,0.4604577031878275,0.6569970104369041,0.6179688001689316,0.03911999071266218,0.4876961868253998,0.4449239140012254,799.8168498168499,799.4139194139194,802.6373626373627,783.6996336996338,672.893772893773,971.4652014652015,-0.469910,0.077209,0.710815,-3.925323,3.095398,2.205658,1,2,1,1,2,94.000000
2024-12-21 15:47:23.304,0.7205190519625931,0.5675448106465406,0.4541723108643989,0.6197362704156532,0.2667068537749347,-0.1110420511112075,-0.03294828699990935,0.5130912034379129,0.4976120975441068,0.1123555538739697,0.1577774435863382,0.3015840254839008,0.5869572080988075,0.08492628362397744,-0.07198435673148725,0.6569970104369041,0.6274746198257088,-0.06244492695145208,-0.3849853083951288,0.4449239140012254,819.5604395604396,800.2197802197802,797.3992673992674,792.967032967033,832.8571428571429,838.0952380952381,-0.623047,0.000488,0.827148,-4.605713,0.164490,10.729218,1,1,1,1,1,94.000000
2024-12-21 15:47:23.804,0.7250345195276281,0.4748674941408004,0.48820880006645,0.4440291528134439,0.2433048780700218,-0.14285369165444,-0.1411460912743234,-0.1388900500253908,0.4976120975441068,0.05633029297421744,0.1577774435863382,0.46793641818725,0.5787314394029339,-0.02970764966062658,-0.0626433643130368,0.4807987593983668,0.6317877534419652,-0.1443283221780223,-0.3778164614792152,0.6351473226920623,792.5641025641025,802.2344322344322,803.8461538461539,801.4285714285714,723.2600732600732,625.7509157509157,-0.577271,-0.014832,0.710144,3.005676,-3.312225,-0.037384,1,1,1,1,1,94.000000
2024-12-21 15:47:24.078,,,,,,,,,,,,,,,,,,,,,,,,,,,,,,,,,,,,,,,/muse/elements/blink
2024-12-21 15:47:24.305,0.7250345195276281,0.6894186010603836,0.5652365379152903,0.4440291528134439,0.2433048780700218,0.3516782894909146,0.2483960264457832,-0.1388900500253908,0.4976120975441068,0.2292374860093588,0.5355569542625455,0.46793641818725,0.5787314394029339,-0.07356723040859921,-0.07175519226047049,0.4807987593983668,0.6317877534419652,-0.2012021990024802,-0.4124981855679392,0.6351473226920623,808.6813186813187,826.007326007326,786.1172161172161,799.8168498168499,705.1282051282052,691.025641025641,-0.552856,0.030334,0.712646,-0.157013,-1.345825,-4.897308,1,1,1,1,1,94.000000
2024-12-21 15:47:24.804,0.583408394368912,0.8989235561226487,0.6408861510035575,0.4440291528134439,0.04044455123583942,0.5325772956964301,0.538724332472016,-0.1388900500253908,0.3957899023905211,0.3319191695955651,0.6897007950686889,0.46793641818725,0.527193610901847,-0.04514805972472859,-0.038845055006411,0.4807987593983668,0.618144789799207,-0.2160700736354542,-0.4094580513892206,0.6351473226920623,812.3076923076924,796.5934065934066,794.5787545787546,793.7728937728938,893.6996336996338,450.0732600732601,-0.815857,-0.030579,1.041016,-0.426178,15.529327,0.553284,1,1,1,1,1,94.000000
2024-12-21 15:47:25.303,0.583408394368912,0.9707909882138609,0.6466589062067341,0.4440291528134439,0.04044455123583942,0.6268961611638604,0.6299728935480984,-0.1388900500253908,0.3957899023905211,0.3584563563696166,0.6946541338645416,0.46793641818725,0.527193610901847,0.02881252264072311,0.07220373594743722,0.4807987593983668,0.618144789799207,-0.2899161290541137,-0.3555409769367014,0.6351473226920623,805.0549450549451,809.0842490842491,799.0109890109891,813.1135531135532,798.2051282051282,625.3479853479854,-0.559204,-0.110779,0.736816,4.942169,2.228088,-2.302856,1,1,1,1,1,94.000000
2024-12-21 15:47:25.571,,,,,,,,,,,,,,,,,,,,,,,,,,,,,,,,,,,,,,,/muse/elements/blink
2024-12-21 15:47:25.804,1.811029210902951,0.9305328869733113,0.6502123480811204,0.4440291528134439,1.172744968677832,0.591571353239879,0.6722951977112099,-0.1388900500253908,1.160944524663678,0.3726224389877309,0.6946541338645416,0.46793641818725,1.000818108417928,0.08733573347602912,0.09169802701419814,0.4807987593983668,0.3942051941933458,-0.3528439000640436,-0.2451826669550401,0.6351473226920623,796.996336996337,797.3992673992674,817.1428571428571,790.1465201465202,911.4285714285714,1055.677655677656,-0.593628,-0.003479,0.675659,-0.927124,-4.246826,-3.626251,1,1,1,1,1,94.000000
2024-12-21 15:47:26.304,1.811029210902951,0.766885663781768,0.6138650388531827,0.4440291528134439,1.172744968677832,0.5614969860978843,0.5581345840949947,-0.1388900500253908,1.160944524663678,0.3226061931634452,0.5312373899647909,0.46793641818725,1.000818108417928,0.1206159820808764,0.1373308961062008,0.4807987593983668,0.3942051941933458,-0.385107024199955,-0.1833793965623511,0.6351473226920623,767.5824175824176,795.7875457875458,802.2344322344322,790.5494505494506,829.6336996336996,617.2893772893773,-0.542175,-0.056396,0.808899,2.549591,-5.719757,6.430054,1,1,1,1,1,94.000000
2024-12-21 15:47:26.811,1.811029210902951,0.6171463954309262,0.6671830299326473,0.4440291528134439,1.172744968677832,0.5153051752352091,0.5677460385643421,-0.1388900500253908,1.160944524663678,0.2729239051281475,0.2132073697813661,0.46793641818725,1.000818108417928,0.09100479516145682,-0.07557873263041631,0.4807987593983668,0.3942051941933458,-0.3590299348552591,-0.2089155784215185,0.6351473226920623,786.9230769230769,802.6373626373627,802.2344322344322,818.3516483516484,757.1062271062272,815.934065934066,-0.576599,0.076965,0.756592,2.983246,-7.177734,3.962708,1,1,1,1,1,94.000000
2024-12-21 15:47:27.303,1.811029210902951,0.4978400055928458,0.6671830299326473,0.4440291528134439,1.172744968677832,0.5473693564406104,0.5677460385643421,-0.1388900500253908,1.160944524663678,0.3958775233457681,0.2132073697813661,0.46793641818725,1.000818108417928,0.2060698329120006,-0.07557873263041631,0.4807987593983668,0.3942051941933458,-0.2380017495823451,-0.2089155784215185,0.6351473226920623,845.3479853479854,792.1611721611722,763.956043956044,689.0109890109891,937.2161172161173,321.1355311355312,-0.590637,0.010193,0.864929,-3.140259,13.144226,7.940369,1,1,1,1,1,94.000000
2024-12-21 15:47:27.324,,,,,,,,,,,,,,,,,,,,,,,,,,,,,,,,,,,,,,,/muse/elements/blink
2024-12-21 15:47:27.632,,,,,,,,,,,,,,,,,,,,,,,,,,,,,,,,,,,,,,,/muse/elements/blink
2024-12-21 15:47:27.632,,,,,,,,,,,,,,,,,,,,,,,,,,,,,,,,,,,,,,,/muse/elements/jaw_clench
2024-12-21 15:47:27.804,1.811029210902951,0.9446345646403597,0.6671830299326473,0.4440291528134439,1.172744968677832,0.5279224257662518,0.5677460385643421,-0.1388900500253908,1.160944524663678,0.3958775233457681,0.2132073697813661,0.46793641818725,1.000818108417928,0.16852357300447,-0.07557873263041631,0.4807987593983668,0.3942051941933458,-0.2972658356516328,-0.2089155784215185,0.6351473226920623,758.7179487179487,787.7289377289378,804.2490842490843,787.7289377289378,725.2747252747253,420.2564102564103,-0.602356,-0.055420,0.899414,2.108459,-7.723541,-6.975861,1,1,1,1,1,94.000000
2024-12-21 15:47:27.829,,,,,,,,,,,,,,,,,,,,,,,,,,,,,,,,,,,,,,,/muse/elements/blink
2024-12-21 15:47:28.304,1.811029210902951,0.9425467746108777,0.6671830299326473,0.4440291528134439,1.172744968677832,0.573538399858785,0.5677460385643421,-0.1388900500253908,1.160944524663678,0.7512066920141229,0.2132073697813661,0.46793641818725,1.000818108417928,0.384789414109926,-0.07557873263041631,0.4807987593983668,0.3942051941933458,0.324989410613743,-0.2089155784215185,0.6351473226920623,784.5054945054945,789.3406593406594,821.1721611721612,788.9377289377289,828.8278388278388,958.5714285714286,-0.588928,0.010620,0.741577,-1.398163,-1.128998,-3.813171,1,2,1,1,2,94.000000
2024-12-21 15:47:28.805,1.811029210902951,0.976962430775914,0.6671830299326473,0.4440291528134439,1.172744968677832,0.6063779908726222,0.5677460385643421,-0.1388900500253908,1.160944524663678,0.7819283535517418,0.2132073697813661,0.46793641818725,1.000818108417928,0.3510128289390246,-0.07557873263041631,0.4807987593983668,0.3942051941933458,0.4191266701192707,-0.2089155784215185,0.6351473226920623,772.014652014652,791.7582417582418,808.6813186813187,796.996336996337,727.6923076923077,645.8974358974359,-0.564514,-0.024109,0.709717,1.809387,-1.943970,5.173950,1,2,1,1,2,94.000000
2024-12-21 15:47:29.304,1.811029210902951,0.9129106408035869,0.9273008971051654,0.4440291528134439,1.172744968677832,0.7885669513678248,0.4220092553653476,-0.1388900500253908,1.160944524663678,0.7819283535517418,0.3082913969648922,0.46793641818725,1.000818108417928,0.3931477784357496,0.007832700616202235,0.4807987593983668,0.3942051941933458,0.3851740276738713,-0.5684092859756645,0.6351473226920623,828.8278388278388,807.0695970695971,816.3369963369963,813.919413919414,713.992673992674,930.7692307692308,-0.569153,0.121826,0.763550,-1.532745,-2.781372,-1.390686,1,2,1,1,2,94.000000
2024-12-21 15:47:29.811,1.457252617431146,0.9222786183949397,0.8813438959515993,1.040437732825629,0.4953636964195004,0.7886398450805804,0.6854986790496395,0.8684873116065925,0.8841661968179527,0.7457910952648166,0.6894002043667731,0.8567651148152655,0.6401803795805245,0.2581285380805514,-0.02196850114051132,0.7079500381145185,0.67968167658401,0.06279799428847038,-0.6036828007743826,0.389172103226214,830.8424908424909,788.9377289377289,799.0109890109891,792.967032967033,953.3333333333334,513.7362637362637,-0.747192,-0.090393,1.140442,-0.396271,7.633820,5.824432,1,1,1,1,1,94.000000
2024-12-21 15:47:30.304,1.380875721557944,1.183000055932749,0.8630979813278047,1.097764885750937,0.5396258105324339,0.814212115146438,0.8417827967749848,0.9878376314667235,0.9642607369398085,0.6885445597596588,0.7286178645284327,0.9281680377520617,0.6935505513967485,0.2777100762201885,-0.07584245241886861,0.6784776657721919,0.6756892937173429,-0.1378878017363439,-0.5097229448039947,0.3330570183429248,802.2344322344322,795.3846153846154,795.7875457875458,794.981684981685,821.1721611721612,664.0293040293041,-0.573608,-0.120544,0.779053,-0.224304,-9.674988,-5.630035,1,1,1,1,1,94.000000
2024-12-21 15:47:30.804,1.326261352393343,1.023208809326852,0.7567795621057959,1.082346243041643,0.5159020058017815,0.4627152927788768,0.8330274529366664,1.040158392077577,0.9087451367628048,0.6850039262009224,0.7286178645284327,0.9296481625737603,0.7200867020636876,0.1125235708808199,-0.2198529522389745,0.6474376645674929,0.6563655481889882,-0.1515124035680841,-0.4469519414542189,0.3725036022594142,821.978021978022,796.1904761904763,798.2051282051282,798.6080586080586,880,767.985347985348,-0.527710,0.046692,0.630249,-5.271149,9.166565,-0.261688,1,1,1,1,1,94.000000
2024-12-21 15:47:31.304,1.391390134609853,0.9265665623925237,0.6877721071353335,1.003489050286917,0.7316004503707052,0.3245850906109464,0.6899926980035539,0.92658354515736,0.9885485682698311,0.6848194921392463,0.709325710431269,0.9285919034211009,1.054854427621764,0.09573498308071134,-0.3189911816895311,0.7480852048438388,0.6405159998932243,-0.1526335781073375,-0.4188734648457744,0.441833096993422,758.3150183150184,808.2783882783883,799.8168498168499,812.7106227106227,789.3406593406594,1252.710622710623,-0.473389,-0.037354,0.711914,6.751556,11.835785,12.389069,1,1,1,1,1,94.000000
2024-12-21 15:47:31.751,,,,,,,,,,,,,,,,,,,,,,,,,,,,,,,,,,,,,,,/muse/elements/blink
2024-12-21 15:47:31.804,1.391390134609853,0.6184473861032866,0.6642868889299027,0.751850348795938,0.7316004503707052,0.1699350262095057,0.3690897847835948,0.5661960982972792,0.9885485682698311,0.2405717500034593,0.2359929242978142,0.2762846002108447,1.054854427621764,0.00841899574174077,-0.2981472556027306,0.8323701277560119,0.6405159998932243,-0.1344458151853842,-0.4793798222290248,0.5718579650871096,795.7875457875458,798.2051282051282,796.996336996337,826.007326007326,562.893772893773,653.1501831501831,-0.498840,0.100952,0.726868,-5.405731,9.495544,-0.852356,1,1,1,1,1,94.000000
2024-12-21 15:47:32.304,1.391390134609853,0.7614456014894875,1.182040581423102,0.7768619239781042,0.7316004503707052,0.2797197544732165,0.8974371296806217,0.5561982171196138,0.9885485682698311,0.1628088254958652,0.8318532239630863,0.2615005163329428,1.054854427621764,0.003281997073546193,-0.2252904302074087,0.8804366789033361,0.6405159998932243,-0.1390433160181582,-0.436228033594417,0.5899184634161774,790.952380952381,803.040293040293,790.952380952381,776.0439560439561,742.1978021978023,511.3186813186813,-0.592041,-0.002258,0.873413,-1.562653,-3.372040,-1.360779,1,1,1,1,1,94.000000
2024-12-21 15:47:32.812,1.391390134609853,0.747860184564464,1.226393124990262,0.7768619239781042,0.7316004503707052,0.2748229845213491,0.8928395045439009,0.5561982171196138,0.9885485682698311,0.05924553861077358,0.8316321191127313,0.2615005163329428,1.054854427621764,-0.1352053959686261,-0.04041724156084099,0.8804366789033361,0.6405159998932243,-0.1856574776555547,-0.2801002468611059,0.5899184634161774,804.6520146520147,801.4285714285714,799.0109890109891,825.6043956043957,693.8461538461538,1038.351648351648,-0.508362,-0.048767,0.699036,5.981445,-2.145844,-3.192596,1,1,1,1,1,94.000000
2024-12-21 15:47:33.304,1.391390134609853,0.6348812562242604,1.13787748112899,0.7768619239781042,0.7316004503707052,0.1634384351802493,0.8307496042670874,0.5561982171196138,0.9885485682698311,0.147947296926358,0.830636389664413,0.2615005163329428,1.054854427621764,-0.1657885827989218,-0.02105650659202108,0.8804366789033361,0.6405159998932243,-0.2288194154697231,-0.267525200713683,0.5899184634161774,790.5494505494506,807.8754578754579,810.6959706959707,815.5311355311355,803.8461538461539,1073.406593406593,-0.518677,0.051147,0.705383,-3.902893,-3.312225,-4.680481,1,1,1,1,1,94.000000
2024-12-21 15:47:33.804,1.286389482631677,0.2193017232650157,0.8459428958252546,0.5857287144271611,0.9920157270272202,-0.1361053523167055,0.5030227902885461,0.4520915070574011,0.889282102275596,0.2575030214889754,0.4172535769322051,0.4024604895733659,1.119226199498291,-0.2018654820653351,-0.0192852413298676,0.4497577028061235,0.7879625429441882,-0.2892693605869101,-0.2740962243281518,0.4343665185561243,790.5494505494506,801.025641025641,808.6813186813187,813.5164835164835,724.0659340659341,682.1611721611722,-0.453003,0.020386,0.808044,-5.779572,-2.407532,-0.717773,1,1,1,1,1,94.000000
2024-12-21 15:47:34.304,1.286389482631677,0.07958435710427812,0.707259548177016,0.9259391842440647,0.9920157270272202,-0.1213580641536215,0.3303739546437151,0.3815820068044945,0.889282102275596,0.2562258048632893,0.4589519102090175,0.5935203669773842,1.119226199498291,-0.1332122264232756,-0.02461508339643554,0.5190865170428397,0.7879625429441882,-0.2443339818345091,-0.3306872511821936,0.4631513349554512,820.7692307692308,808.6813186813187,796.5934065934066,838.0952380952381,710.7692307692308,838.0952380952381,-0.641418,0.153625,0.766174,2.205658,-4.680481,14.512482,1,1,1,1,1,94.000000
2024-12-21 15:47:34.803,1.095371187046591,0.3331576261689932,0.7147571411288582,1.041351419851932,0.8601185035112172,-0.03410719878750374,0.3891579512438052,0.3897746472579919,0.8430001645774438,0.2599896092795067,0.4673174472890649,0.5154530877060689,1.210444638199822,-0.06484481510368117,-0.05064637690077742,0.6046620845348409,0.8154973205677593,-0.2712855307301315,-0.3333766438060686,0.4927944293024368,812.3076923076924,804.6520146520147,802.6373626373627,813.919413919414,831.2454212454213,1257.545787545788,-0.501465,-0.139282,0.874817,0.104675,-11.992798,7.282410,1,1,1,1,1,94.000000
2024-12-21 15:47:35.304,1.095371187046591,0.5578988301673702,0.6320887843087214,1.187743309005013,0.8601185035112172,0.12405724914958,0.2278891411217441,0.4131876137939363,0.8430001645774438,0.2827436034417901,0.4630905871762104,0.4994211736109158,1.210444638199822,-0.02030156812244425,-0.05841004209532831,0.6532691069649009,0.8154973205677593,-0.2444676005138224,-0.369539730112202,0.5056483950742274,800.6227106227107,803.4432234432235,783.2967032967033,804.2490842490843,855.0183150183151,628.5714285714286,-0.555298,-0.112854,0.941711,-0.732727,-12.531128,-1.547699,1,1,1,1,1,94.000000
2024-12-21 15:47:35.332,,,,,,,,,,,,,,,,,,,,,,,,,,,,,,,,,,,,,,,/muse/elements/blink
2024-12-21 15:47:35.804,1.095371187046591,0.8335618572839488,1.013089282574158,1.179397082393544,0.8601185035112172,0.5714043580254823,0.3158112198892687,0.5193886817449835,0.8430001645774438,0.5623408714088232,0.5494058620375371,0.2806940178726517,1.210444638199822,0.02533880963506435,-0.08923170940597509,0.6855079855235314,0.8154973205677593,-0.1711501686446756,-0.338051790068995,0.5057112651540283,842.5274725274726,786.5201465201466,796.996336996337,870.3296703296703,724.8717948717949,765.5677655677656,-0.542542,-0.038025,1.011597,-1.405640,1.420593,4.725342,1,1,1,1,1,94.000000
2024-12-21 15:47:36.305,1.095371187046591,0.8942930530101103,1.122404813424115,1.243152004276814,0.8601185035112172,0.6232014741435081,0.2868948907175684,0.6478999268155081,0.8430001645774438,0.6051621525978272,0.5190688489089974,0.273169230227182,1.210444638199822,-0.029686508120815,-0.1141484283160806,0.6895397046021833,0.8154973205677593,-0.1442633571611277,-0.2823270466497219,0.5225182692495562,808.2783882783883,801.025641025641,800.6227106227107,815.1282051282052,759.5238095238095,576.5934065934066,-0.632202,0.053894,0.654358,-2.579498,-3.028107,8.486176,1,1,1,1,1,94.000000
2024-12-21 15:47:36.649,,,,,,,,,,,,,,,,,,,,,,,,,,,,,,,,,,,,,,,/muse/elements/blink
2024-12-21 15:47:36.813,1.095371187046591,0.8205988609432158,1.152562411068048,1.243152004276814,0.8601185035112172,0.6325116011867522,0.4427345783150134,0.6478999268155081,0.8430001645774438,0.6051621525978272,0.5375856506892882,0.273169230227182,1.210444638199822,-0.1119971091383462,-0.09863372023173327,0.6895397046021833,0.8154973205677593,-0.1191157098456419,-0.1791307282993133,0.5225182692495562,792.1611721611722,807.8754578754579,807.8754578754579,815.5311355311355,830.8424908424909,913.4432234432235,-0.548950,-0.044495,0.655579,4.740295,-3.102875,-3.962708,1,1,1,1,1,94.000000
2024-12-21 15:47:37.304,1.095371187046591,0.723907905835106,0.990301375595114,1.243152004276814,0.8601185035112172,0.4962102597086254,0.753428428887892,0.6478999268155081,0.8430001645774438,0.354765157025568,0.4891970775054032,0.273169230227182,1.210444638199822,-0.07493756180658405,-0.07241755702507731,0.6895397046021833,0.8154973205677593,-0.1828940268152907,-0.09703966725392979,0.5225182692495562,811.5018315018315,811.5018315018315,802.6373626373627,820.3663003663004,801.8315018315019,671.6849816849817,-0.566467,0.126343,0.776306,-0.299072,-4.815063,-2.235565,1,1,1,1,1,94.000000
2024-12-21 15:47:37.483,,,,,,,,,,,,,,,,,,,,,,,,,,,,,,,,,,,,,,,/muse/elements/jaw_clench
2024-12-21 15:47:37.681,,,,,,,,,,,,,,,,,,,,,,,,,,,,,,,,,,,,,,,/muse/elements/jaw_clench
2024-12-21 15:47:37.804,1.095371187046591,0.7136990001071563,0.9051291861090057,1.243152004276814,0.8601185035112172,0.5614713489252456,0.9428507935337442,0.6478999268155081,0.8430001645774438,0.3119712919997024,0.4598546644394523,0.273169230227182,1.210444638199822,-0.02220852238120698,-0.02097958414234789,0.6895397046021833,0.8154973205677593,-0.152579861876787,-0.0476794660957192,0.5225182692495562,813.1135531135532,799.4139194139194,796.5934065934066,785.3113553113553,652.3443223443223,761.5384615384615,-0.504883,-0.030579,0.885193,-0.500946,10.078735,-0.643005,1,2,1,1,2,94.000000
2024-12-21 15:47:38.303,1.095371187046591,0.8614142424287013,1.071326445901671,1.243152004276814,0.8601185035112172,0.6985252945286641,1.156066337614196,0.6478999268155081,0.8430001645774438,0.3011217201740214,0.4553815703193272,0.273169230227182,1.210444638199822,0.1140820496305389,0.06759975146085083,0.6895397046021833,0.8154973205677593,-0.163465909499923,0.01946430484994966,0.5225182692495562,793.7728937728938,799.8168498168499,806.6666666666667,798.6080586080586,755.8974358974359,726.8864468864469,-0.561951,-0.056458,0.839417,17.884521,-0.964508,-26.609955,1,2,1,1,2,94.000000
2024-12-21 15:47:38.804,1.095371187046591,0.9924076474819764,1.071326445901671,1.243152004276814,0.8601185035112172,0.6987352069263303,1.156066337614196,0.6478999268155081,0.8430001645774438,0.3828786350483934,0.4553815703193272,0.273169230227182,1.210444638199822,0.01542810317748139,0.06759975146085083,0.6895397046021833,0.8154973205677593,-0.1054587840390433,0.01946430484994966,0.5225182692495562,812.7106227106227,813.1135531135532,798.2051282051282,783.2967032967033,833.2600732600733,950.5128205128206,-0.551270,0.059570,0.728088,19.020996,1.562653,-21.966858,1,2,1,1,2,94.000000
2024-12-21 15:47:39.308,0.9892444746978333,0.9674676883477472,0.2442572613362927,0.7480677917203782,0.7441631396602183,0.7454678782811951,0.04528089903095622,0.1860987420366606,0.8720369988880122,0.500120405571899,0.02632706511425447,0.3843632967559033,1.086180197158656,0.1091003012082718,-0.09296734462317199,0.3685714852430401,0.9622806546029095,-0.2376718958910577,-0.4404587124408996,0.1512425577597005,824.3956043956044,800.2197802197802,809.0842490842491,792.1611721611722,755.4945054945055,645.8974358974359,-0.545898,-0.040039,0.687317,7.783356,-5.659943,-4.702911,1,1,1,1,1,94.000000
2024-12-21 15:47:39.675,,,,,,,,,,,,,,,,,,,,,,,,,,,,,,,,,,,,,,,/muse/elements/blink
2024-12-21 15:47:39.804,1.00907154818885,0.9241507573842296,0.2755396235586071,0.7468542965128173,0.7779699429429442,0.73658468807727,0.09147000292714225,0.2183265250295143,0.9021411153012477,0.5252406655531745,0.09191907489645589,0.3969276515476811,1.109974426100881,0.1236463028063614,-0.1087982294689041,0.3520729806298373,0.9625173036192507,-0.2671664040703404,-0.4561351999964909,0.1613107656245231,819.5604395604396,817.948717948718,781.2820512820513,810.2930402930403,791.3553113553114,816.3369963369963,-0.577209,0.103149,0.773743,-38.184052,-1.390686,44.322510,1,1,1,1,1,94.000000
2024-12-21 15:47:40.304,1.004369797474434,0.8797171912213857,0.2536922898824818,0.7482610146298116,0.8250153152830354,0.7568185310920512,0.007429543217277281,0.1416323112418386,0.8916106016636596,0.5031796263130247,0.07057188120206255,0.2993187275034904,1.128280707069353,0.1751982687113245,-0.149128264953564,0.3204851939501531,0.9783298496521458,-0.3966402184935778,-0.4543922086598282,0.1810265403272193,817.1428571428571,802.6373626373627,790.952380952381,817.948717948718,940.8424908424909,786.9230769230769,-0.586731,-0.058350,0.959229,-0.755157,8.030090,1.121521,1,1,1,1,1,94.000000
2024-12-21 15:47:40.643,,,,,,,,,,,,,,,,,,,,,,,,,,,,,,,,,,,,,,,/muse/elements/blink
2024-12-21 15:47:40.643,,,,,,,,,,,,,,,,,,,,,,,,,,,,,,,,,,,,,,,/muse/elements/jaw_clench
2024-12-21 15:47:40.803,1.067892899648885,0.7164676833685376,0.3236153436895588,0.7505912819585173,0.9149665600048097,0.8024680204120821,0.0369601606069053,0.1273961463108362,0.8843223352250846,0.4982708595858713,0.06367918585481262,0.008879813254492799,1.191176357619,0.1607227509349195,-0.1773188713848591,0.2813603242815686,0.9784235320089829,-0.4269320805996709,-0.5002177428199359,0.1943456147468693,505.6776556776557,780.8791208791209,859.8534798534798,512.9304029304029,724.8717948717949,465.3846153846154,-0.572205,-0.005981,0.841003,-0.650482,1.973877,-9.144135,1,1,1,1,1,94.000000
2024-12-21 15:47:41.042,,,,,,,,,,,,,,,,,,,,,,,,,,,,,,,,,,,,,,,/muse/elements/blink
2024-12-21 15:47:41.304,1.067892899648885,0.7164676833685376,0.3236153436895588,0.7505912819585173,0.9149665600048097,0.8024680204120821,0.0369601606069053,0.1273961463108362,0.8843223352250846,0.4982708595858713,0.06367918585481262,0.008879813254492799,1.191176357619,0.1607227509349195,-0.1773188713848591,0.2813603242815686,0.9784235320089829,-0.4269320805996709,-0.5002177428199359,0.1943456147468693,749.4505494505495,799.8168498168499,810.2930402930403,786.9230769230769,817.5457875457876,724.4688644688645,-0.578918,0.027649,0.708679,1.510315,-0.560760,-5.570221,1,1,1,1,1,94.000000
2024-12-21 15:47:41.804,1.067892899648885,0.7164676833685376,0.3236153436895588,0.7505912819585173,0.9149665600048097,0.8024680204120821,0.0369601606069053,0.1273961463108362,0.8843223352250846,0.4982708595858713,0.06367918585481262,0.008879813254492799,1.191176357619,0.1607227509349195,-0.1773188713848591,0.2813603242815686,0.9784235320089829,-0.4269320805996709,-0.5002177428199359,0.1943456147468693,823.1868131868132,804.2490842490843,799.8168498168499,788.5347985347986,821.1721611721612,991.6117216117217,-0.560547,-0.075745,0.674866,10.086212,3.521576,-11.536713,1,1,1,1,1,94.000000
2024-12-21 15:47:42.304,1.067892899648885,0.6870934935819375,0.3236153436895588,0.7505912819585173,0.9149665600048097,0.3941971693313097,0.0369601606069053,0.1273961463108362,0.8843223352250846,0.3680825597618535,0.06367918585481262,0.008879813254492799,1.191176357619,-0.04140569497731993,-0.1773188713848591,0.2813603242815686,0.9784235320089829,-0.3214995457802273,-0.5002177428199359,0.1943456147468693,846.5567765567765,807.8754578754579,801.025641025641,813.1135531135532,730.5128205128206,1333.699633699634,-0.526672,0.132568,0.764771,13.518066,3.252411,-8.710480,1,2,1,1,2,94.000000
2024-12-21 15:47:42.804,1.067892899648885,0.5921421798606832,0.8060026768869706,0.7505912819585173,0.9149665600048097,0.2665249696925984,0.2721138617844446,0.1273961463108362,0.8843223352250846,0.3428960726768794,0.3670069615384466,0.008879813254492799,1.191176357619,-0.1531119838833022,0.1322276506389296,0.2813603242815686,0.9784235320089829,-0.2870155448014146,0.1506714991014794,0.1943456147468693,859.8534798534798,819.96336996337,772.014652014652,795.7875457875458,934.3956043956044,198.2417582417582,-0.871582,-0.094177,1.313416,13.002167,-9.293671,9.293671,1,2,1,1,2,94.000000
2024-12-21 15:47:43.309,1.067892899648885,0.8886519823419289,0.9650812165916115,0.7505912819585173,0.9149665600048097,0.5707583307609064,0.5720010981730208,0.1273961463108362,0.8843223352250846,0.7378357431866588,0.3689617117873921,0.008879813254492799,1.191176357619,-0.155695921371424,0.1403479963177786,0.2813603242815686,0.9784235320089829,-0.2227976930622209,0.1674652468240822,0.1943456147468693,729.7069597069598,832.8571428571429,751.8681318681319,697.8754578754579,832.8571428571429,952.9304029304029,-0.585022,-0.146118,0.777832,2.676697,-3.058014,-0.665436,1,2,1,1,2,94.000000
2024-12-21 15:47:43.584,,,,,,,,,,,,,,,,,,,,,,,,,,,,,,,,,,,,,,,/muse/elements/blink
2024-12-21 15:47:43.761,,,,,,,,,,,,,,,,,,,,,,,,,,,,,,,,,,,,,,,/muse/elements/blink
2024-12-21 15:47:43.804,1.067892899648885,1.012616640080073,0.9314893565923438,0.7505912819585173,0.9149665600048097,0.629969078685939,0.5813616557775214,0.1273961463108362,0.8843223352250846,0.6771612041589685,0.2612553769946506,0.008879813254492799,1.191176357619,-0.1541361242059093,0.1700070968137182,0.2813603242815686,0.9784235320089829,-0.1551594069398335,0.2198251675047584,0.1943456147468693,791.7582417582418,799.0109890109891,800.6227106227107,792.5641025641025,662.8205128205128,795.3846153846154,-0.545959,0.099426,0.859741,6.975861,-5.196381,-16.374207,1,2,1,1,2,94.000000
2024-12-21 15:47:44.304,1.067892899648885,1.146141960958921,1.151677167830186,0.7505912819585173,0.9149665600048097,0.7805028269417295,0.844468051784167,0.1273961463108362,0.8843223352250846,0.6640756568977286,0.1740459751114512,0.008879813254492799,1.191176357619,-0.1558952789499262,0.1542031932713522,0.2813603242815686,0.9784235320089829,-0.117483279775381,0.1953768831752778,0.1943456147468693,737.3626373626374,730.1098901098901,862.2710622710623,801.025641025641,921.5018315018315,999.6703296703297,-0.567261,-0.178894,0.918945,-23.357544,-1.128998,51.320801,1,2,1,1,2,94.000000
2024-12-21 15:47:44.806,1.067892899648885,1.064249508985377,1.151677167830186,0.7505912819585173,0.9149665600048097,0.6255045675479657,0.844468051784167,0.1273961463108362,0.8843223352250846,0.6532339830637155,0.1740459751114512,0.008879813254492799,1.191176357619,-0.1495858648819339,0.1542031932713522,0.2813603242815686,0.9784235320089829,-0.0900244286687529,0.1953768831752778,0.1943456147468693,825.2014652014652,812.7106227106227,799.4139194139194,817.1428571428571,809.8901098901099,1001.282051282051,-0.580872,-0.021667,0.748657,-16.777954,3.671112,17.944336,1,2,1,1,2,94.000000
2024-12-21 15:47:45.311,1.384008404526044,1.064249508985377,1.151677167830186,0.7505912819585173,1.2047598515186,0.6255045675479657,0.844468051784167,0.1273961463108362,1.082364547136528,0.6532339830637155,0.1740459751114512,0.008879813254492799,0.8798871537627958,-0.1495858648819339,0.1542031932713522,0.2813603242815686,0.6305275052228299,-0.0900244286687529,0.1953768831752778,0.1943456147468693,804.6520146520147,794.981684981685,805.4578754578755,805.8608058608058,823.1868131868132,812.3076923076924,-0.557983,0.057617,0.848572,-1.779480,-3.252411,10.998383,1,1,1,1,1,94.000000
2024-12-21 15:47:45.804,1.297193906595971,1.064249508985377,1.151677167830186,0.7505912819585173,1.018559219701364,0.6255045675479657,0.844468051784167,0.1273961463108362,1.239212821941742,0.6532339830637155,0.1740459751114512,0.008879813254492799,0.880655916096313,-0.1495858648819339,0.1542031932713522,0.2813603242815686,0.6256179484650313,-0.0900244286687529,0.1953768831752778,0.1943456147468693,791.3553113553114,810.2930402930403,804.2490842490843,783.2967032967033,812.7106227106227,647.5091575091575,-0.574341,-0.065247,0.914185,-3.043060,-9.712372,2.115936,1,1,1,1,1,94.000000
2024-12-21 15:47:46.002,,,,,,,,,,,,,,,,,,,,,,,,,,,,,,,,,,,,,,,/muse/elements/blink
2024-12-21 15:47:46.303,1.297193906595971,0.5862882766928398,0.8837558427864102,0.7505912819585173,1.018559219701364,0.2833534905897895,0.581406944726141,0.1273961463108362,1.239212821941742,0.07074691254598024,0.2070536303765354,0.008879813254492799,0.880655916096313,-0.1397640342836846,-0.08821393376242821,0.2813603242815686,0.6256179484650313,-0.2949638671231524,-0.4020913066720768,0.1943456147468693,813.919413919414,807.4725274725275,801.4285714285714,824.7985347985348,704.3223443223443,848.5714285714286,-0.541138,0.042297,0.834839,3.274841,1.779480,-0.411224,1,1,1,1,1,94.000000
2024-12-21 15:47:46.803,1.219199879195622,0.5862882766928398,0.8837558427864102,0.7505912819585173,0.6681380341456864,0.2833534905897895,0.581406944726141,0.1273961463108362,1.021717459285888,0.07074691254598024,0.2070536303765354,0.008879813254492799,0.8710714133449159,-0.1397640342836846,-0.08821393376242821,0.2813603242815686,0.5991248105309138,-0.2949638671231524,-0.4020913066720768,0.1943456147468693,797.8021978021978,796.996336996337,803.040293040293,826.8131868131868,909.8168498168499,1032.710622710623,-0.537231,-0.007751,0.843933,6.773987,1.973877,-0.164490,1,1,1,1,1,94.000000
2024-12-21 15:47:47.304,1.163757170080271,0.6370691323091893,0.9979794541577465,0.7505912819585173,0.682798757269038,0.3172414789982063,0.7017795809629106,0.1273961463108362,1.010425871904537,-0.08702992890643822,0.1991540699065351,0.008879813254492799,0.8873444536102435,-0.08485665490795304,-0.1464866611060562,0.2813603242815686,0.6609721251660229,-0.2632593259406737,-0.348351909683089,0.1943456147468693,868.3150183150184,800.6227106227107,796.996336996337,867.1062271062272,893.2967032967033,719.6336996336996,-0.533813,-0.042053,0.803528,-5.831909,3.215027,17.615356,1,1,1,1,1,94.000000
2024-12-21 15:47:47.811,1.163757170080271,0.7867579920413945,1.083133276786515,0.7505912819585173,0.682798757269038,0.4185672241299856,0.7890251899432358,0.1273961463108362,1.010425871904537,-0.2068209336145683,0.1846042287630388,0.008879813254492799,0.8873444536102435,-0.0173476486703752,-0.1823108584623373,0.2813603242815686,0.6609721251660229,-0.2015256014256168,-0.314803245242439,0.1943456147468693,654.3589743589744,782.0879120879121,872.7472527472528,630.5860805860806,869.5238095238095,718.4249084249085,-0.631287,0.067078,0.992676,-3.244934,-14.325562,9.480591,1,1,1,1,1,94.000000
2024-12-21 15:47:47.931,,,,,,,,,,,,,,,,,,,,,,,,,,,,,,,,,,,,,,,/muse/elements/blink
2024-12-21 15:47:48.304,1.163757170080271,0.7867579920413945,1.083133276786515,0.7505912819585173,0.682798757269038,0.4185672241299856,0.7890251899432358,0.1273961463108362,1.010425871904537,-0.2068209336145683,0.1846042287630388,0.008879813254492799,0.8873444536102435,-0.0173476486703752,-0.1823108584623373,0.2813603242815686,0.6609721251660229,-0.2015256014256168,-0.314803245242439,0.1943456147468693,771.2087912087912,805.4578754578755,805.0549450549451,770.8058608058608,736.959706959707,1002.087912087912,-0.489868,0.004822,0.853638,16.807861,-11.581573,-20.022888,1,1,1,1,1,94.000000
2024-12-21 15:47:48.804,1.163757170080271,0.7867579920413945,1.083133276786515,0.7505912819585173,0.682798757269038,0.4185672241299856,0.7890251899432358,0.1273961463108362,1.010425871904537,-0.2068209336145683,0.1846042287630388,0.008879813254492799,0.8873444536102435,-0.0173476486703752,-0.1823108584623373,0.2813603242815686,0.6609721251660229,-0.2015256014256168,-0.314803245242439,0.1943456147468693,802.2344322344322,801.8315018315019,805.4578754578755,799.8168498168499,781.2820512820513,615.2747252747253,-0.531799,0.044983,0.839050,2.415009,-7.409515,1.480408,1,2,1,1,2,94.000000
2024-12-21 15:47:49.304,1.163757170080271,1.012696758567504,1.083133276786515,0.7505912819585173,0.682798757269038,0.4964733838915585,0.7890251899432358,0.1273961463108362,1.010425871904537,0.4958499351599689,0.1846042287630388,0.008879813254492799,0.8873444536102435,0.0835053498794278,-0.1823108584623373,0.2813603242815686,0.6609721251660229,-0.284256123176048,-0.314803245242439,0.1943456147468693,778.8644688644689,799.0109890109891,809.4871794871796,817.1428571428571,840.5128205128206,983.5531135531136,-0.545471,0.011475,0.824036,14.886322,-6.138458,-26.430511,1,2,1,1,2,94.000000
2024-12-21 15:47:49.804,1.163757170080271,1.105747173432152,1.221340197523852,0.7629262586404881,0.682798757269038,0.5740238341082203,0.7793803155889391,0.9220252386948264,1.010425871904537,0.5078389134406456,0.5831413495989377,0.6871567676782238,0.8873444536102435,0.06426727340858106,-0.2742882667176832,0.3072920627912456,0.6609721251660229,-0.2694197463092474,-0.4006962960393016,0.4375444297379924,833.6630036630037,776.4468864468864,821.1721611721612,839.7069597069598,764.3589743589744,968.2417582417582,-0.536011,0.005371,0.836609,4.673004,-3.484192,-14.086304,1,1,1,1,1,94.000000
2024-12-21 15:47:49.988,,,,,,,,,,,,,,,,,,,,,,,,,,,,,,,,,,,,,,,/muse/elements/jaw_clench
2024-12-21 15:47:50.303,1.163757170080271,1.097272428375113,1.14321052077366,0.7629262586404881,0.682798757269038,0.4768037809286356,0.7138205366443262,0.9220252386948264,1.010425871904537,0.4769566487220516,0.5860294429650896,0.6871567676782238,0.8873444536102435,0.05994859461229129,-0.1682989270561923,0.3072920627912456,0.6609721251660229,-0.2176051603196097,-0.1546036500959374,0.4375444297379924,805.4578754578755,798.6080586080586,799.8168498168499,799.0109890109891,809.0842490842491,639.4505494505495,-0.523987,-0.022400,0.851074,31.851196,2.123413,-52.150726,1,1,1,1,1,94.000000
2024-12-21 15:47:50.810,1.163757170080271,1.174811097604068,1.046485070619307,0.8377071713780059,0.682798757269038,0.5639829608398201,0.7538510476896492,1.023917311318071,1.010425871904537,0.2840746917510184,0.6860941941199377,0.6574730035305333,0.8873444536102435,-0.02396880639613388,0.02398787833731831,0.2658697687565733,0.6609721251660229,-0.2121083745819288,0.06915648673954344,0.3884049632273951,804.6520146520147,801.025641025641,802.2344322344322,813.1135531135532,814.3223443223443,1133.846153846154,-0.559021,-0.056580,0.812317,-13.032074,1.652374,8.934784,1,1,1,1,1,94.000000
2024-12-21 15:47:51.158,,,,,,,,,,,,,,,,,,,,,,,,,,,,,,,,,,,,,,,/muse/elements/blink
2024-12-21 15:47:51.304,1.163757170080271,1.174811097604068,0.7272956550208943,0.7060286268847579,0.682798757269038,0.5639829608398201,0.6434955501824923,0.7440497124555329,1.010425871904537,0.2840746917510184,0.5753317004932903,0.7275732182757739,0.8873444536102435,-0.02396880639613388,0.1141520902269905,0.6116814057978306,0.6609721251660229,-0.2121083745819288,0.1504140037295192,0.5261390328706117,1040.3663003663,819.5604395604396,745.8241758241759,999.2673992673992,756.3003663003664,928.3516483516484,-0.465454,0.100708,0.845825,-38.236389,-17.734985,77.078400,1,1,1,1,1,94.000000
2024-12-21 15:47:51.419,,,,,,,,,,,,,,,,,,,,,,,,,,,,,,,,,,,,,,,/muse/elements/blink
2024-12-21 15:47:51.804,1.163757170080271,1.217263478484645,0.56586344478391,0.7060286268847579,0.682798757269038,0.9406345467648383,0.6901957130668984,0.7440497124555329,1.010425871904537,0.5084761634288597,0.565542520887251,0.7275732182757739,0.8873444536102435,0.2620836790009355,0.1493079452894059,0.6116814057978306,0.6609721251660229,-0.4418883680837222,0.1001615425831956,0.5261390328706117,811.5018315018315,801.8315018315019,801.4285714285714,801.8315018315019,809.8901098901099,732.1245421245421,-0.402649,0.084412,0.904907,-4.201965,9.981537,11.297455,1,1,1,1,1,94.000000
2024-12-21 15:47:52.303,1.163757170080271,1.217263478484645,0.4853658023419635,0.7060286268847579,0.682798757269038,0.9406345467648383,0.7040703506743251,0.7440497124555329,1.010425871904537,0.5084761634288597,0.5367718936372851,0.7275732182757739,0.8873444536102435,0.2620836790009355,0.1074933854612796,0.6116814057978306,0.6609721251660229,-0.4418883680837222,-0.2187666529702073,0.5261390328706117,803.4432234432235,801.8315018315019,794.5787545787546,810.2930402930403,865.4945054945056,972.2710622710623,-0.444702,0.012939,0.913818,-2.033691,2.609406,-2.071075,1,1,1,1,1,94.000000
2024-12-21 15:47:52.628,,,,,,,,,,,,,,,,,,,,,,,,,,,,,,,,,,,,,,,/muse/elements/blink
2024-12-21 15:47:52.804,1.163757170080271,1.04846307892865,0.4853658023419635,0.7060286268847579,0.682798757269038,0.4876646050488669,0.7040703506743251,0.7440497124555329,1.010425871904537,0.2906731344467748,0.5367718936372851,0.7275732182757739,0.8873444536102435,0.03877910661104283,0.1074933854612796,0.6116814057978306,0.6609721251660229,-0.3583884274441561,-0.2187666529702073,0.5261390328706117,806.2637362637363,789.7435897435897,792.1611721611722,815.934065934066,750.2564102564103,940.8424908424909,-0.464661,0.003052,0.861694,0.276642,4.246826,-2.684174,1,2,1,1,2,94.000000
2024-12-21 15:47:53.304,1.163757170080271,0.8590359665305325,0.4853658023419635,0.7060286268847579,0.682798757269038,0.8560383699980868,0.7040703506743251,0.7440497124555329,1.010425871904537,0.460266251187656,0.5367718936372851,0.7275732182757739,0.8873444536102435,0.01144861090587003,0.1074933854612796,0.6116814057978306,0.6609721251660229,-0.2825629990264579,-0.2187666529702073,0.5261390328706117,806.6666666666667,786.5201465201466,809.8901098901099,849.7802197802198,690.2197802197802,662.014652014652,-0.506592,0.011658,0.870483,0.456085,-0.530853,-0.844879,1,2,1,1,2,94.000000
2024-12-21 15:47:53.710,,,,,,,,,,,,,,,,,,,,,,,,,,,,,,,,,,,,,,,/muse/elements/jaw_clench
2024-12-21 15:47:53.806,1.163757170080271,0.7373329064745192,0.4853658023419635,0.7060286268847579,0.682798757269038,0.7302877290213018,0.7040703506743251,0.7440497124555329,1.010425871904537,0.5114208951209818,0.5367718936372851,0.7275732182757739,0.8873444536102435,0.1704460376267065,0.1074933854612796,0.6116814057978306,0.6609721251660229,-0.1873087878303255,-0.2187666529702073,0.5261390328706117,821.978021978022,779.2673992673992,801.8315018315019,803.4432234432235,832.0512820512821,946.4835164835165,-0.504272,-0.011475,0.848267,2.594452,-2.056122,-5.644989,1,2,1,1,2,94.000000
