TimeStamp,Delta_TP9,Delta_AF7,Delta_AF8,Delta_TP10,Theta_TP9,Theta_AF7,Theta_AF8,Theta_TP10,Alpha_TP9,Alpha_AF7,Alpha_AF8,Alpha_TP10,Beta_TP9,Beta_AF7,Beta_AF8,Beta_TP10,Gamma_TP9,Gamma_AF7,Gamma_AF8,Gamma_TP10,RAW_TP9,RAW_AF7,RAW_AF8,RAW_TP10,AUX_RIGHT,Accelerometer_X,Accelerometer_Y,Accelerometer_Z,Gyro_X,Gyro_Y,Gyro_Z,HeadBandOn,HSI_TP9,HSI_AF7,HSI_AF8,HSI_TP10,Battery,Elements
2024-12-01 16:02:41.274,,,,,,,,,,,,,,,,,,,,,,,,,,,,,,,,,,,,,,/muse/event/connected Muse-D2D3
2024-12-01 16:02:41.777,0.6066238292194678,0.6338315178918112,0.6881325835670788,1.425161264187418,0.7970312230634724,0.3250780461045293,0.3423004202969994,1.236306802535227,0.8706364026645352,0.05779369585733228,0.246405839430753,1.016769712691429,0.3189082929731737,-0.02546745873934789,0.03237605966637482,1.133783892909315,0.2546940328066212,-0.417046502846482,-0.3280035187451429,0.6105249124677167,794.981684981685,795.3846153846154,797.8021978021978,788.9377289377289,768.7912087912088,-0.431152,0.103638,0.926758,1.398163,-2.572021,-1.233673,1,1,1,1,1,60.000000
2024-12-01 16:02:42.279,0.6158943322460803,0.7734878570317848,0.8355765741457963,1.425161264187418,0.8131758624228723,0.3388939741464789,0.4555519066650273,1.236306802535227,0.8206266092841055,-0.1096183702708513,0.220578217167914,1.016769712691429,0.1800877661053187,0.00518831175980579,-0.1511822448474069,1.133783892909315,0.2127678324617718,-0.4191445947691399,-0.3957398387543956,0.6105249124677167,809.8901098901099,815.5311355311355,796.1904761904763,777.6556776556777,720.0366300366301,-0.403992,0.083862,0.912170,2.915955,-1.786957,1.106567,1,1,1,1,1,60.000000
2024-12-01 16:02:42.775,1.0071241618016,0.7682312474667574,0.7704111723245334,1.425161264187418,0.5520721487311993,0.3209854643580606,0.4229831392471385,1.236306802535227,0.6831339158096968,-0.1016146129488751,0.119916999347728,1.016769712691429,0.4570348603030123,-0.01610058258923296,-0.1315121767586336,1.133783892909315,0.03463140969177181,-0.3422471016388539,-0.3475404254974799,0.6105249124677167,796.1904761904763,799.4139194139194,801.8315018315019,832.8571428571429,741.7948717948718,-0.426147,0.076477,0.920288,1.614990,-1.532745,-2.422485,1,1,1,1,1,60.000000
2024-12-01 16:02:43.280,1.034935224872702,0.39353828110755,-0.01924718858736233,1.480109601216328,0.7942818588405307,-0.1637891750111176,-0.2602900438447061,1.21220647016961,0.9159619465460092,-0.1458093962286096,-0.360888230146396,1.428129509879893,0.5399089184441267,0.01958477063657287,-0.06185576579814399,1.260631986075905,0.1138411117899534,-0.2775017812123282,-0.2872732657894035,0.5899591238397063,808.6813186813187,792.967032967033,802.2344322344322,762.3443223443223,1079.047619047619,-0.413574,0.068115,0.923645,1.861725,-3.155212,0.119629,1,1,1,1,1,60.000000
2024-12-01 16:02:43.774,1.065587218117586,-0.03235210243152353,0.05361540526484621,1.469328677268035,0.8476167639618716,-0.4133928130296792,-0.1500770233659777,1.305282922850267,0.978070541218393,-0.1217825694386621,-0.1687491512958205,1.560022129144317,0.5147772317621879,-7.883216802486391e-05,-0.03858665435980248,1.325203477299419,0.1706132099553213,-0.1843663232782751,-0.2339250665834348,0.6026434418292206,830.4395604395604,786.5201465201466,774.0293040293041,848.5714285714286,809.4871794871796,-0.416687,0.067627,0.917114,2.370148,-2.968292,0.732727,1,1,1,1,1,60.000000
2024-12-01 16:02:44.275,1.094959418643171,0.565716693212667,0.2640195354102345,1.493553620809889,0.9528703972351075,0.2219945287491163,0.01493026775691161,1.414570213144831,0.9655964472427772,0.2657508690771382,0.02925493125845077,1.6339637718608,0.5438219696558964,-0.001052544866419413,0.01372783598513449,1.363906637295284,0.2310655681469126,-0.1270571761032356,-0.2091140755568901,0.6424065686492798,810.6959706959707,802.2344322344322,797.8021978021978,762.3443223443223,704.7252747252747,-0.416138,0.082642,0.930908,3.544006,-2.115936,1.517792,1,1,1,1,1,60.000000
2024-12-01 16:02:44.775,1.133908279053604,0.6427798594805417,0.3688845218142128,1.502907912129015,0.9578416161800456,0.3099454554285562,0.1926687655114766,1.517020446084234,0.8955824968342789,0.2657508690771382,0.02925493125845077,1.6339637718608,0.4447387368709975,-0.04782209883589925,0.0175903831070658,1.425046263755392,0.286671795608245,-0.1119892206971761,-0.174145051307893,0.6763348512359769,810.2930402930403,806.2637362637363,799.0109890109891,796.1904761904763,759.1208791208792,-0.409180,0.078430,0.923645,3.297272,-3.506622,-0.837402,1,1,1,1,1,60.000000
2024-12-01 16:02:45.275,0.308066614001077,0.6132663684396176,0.2710739040114195,1.743956269316471,0.3073735783461931,0.3112345089004588,0.1591517051276646,1.547180826741264,0.6727435583938853,0.2722428108932121,0.1555463181449502,1.680365446775104,0.4310916961777355,0.01388264009455355,0.05697477984297983,1.390031219278478,0.11934604932653,-0.2366929461801674,-0.06668880399910933,0.7121688475917666,861.4652014652015,801.4285714285714,812.3076923076924,781.2820512820513,953.7362637362637,-0.427124,0.091736,0.922607,4.628143,1.689758,-1.054230,1,1,1,1,1,60.000000
2024-12-01 16:02:45.783,1.096297505010402,-0.3294347807966814,-0.1314642304258632,1.801960351641988,1.031006308770992,-0.1199054026866861,-0.1589378447073276,1.405552176593678,1.239370769559607,0.4033516662780309,0.2551783199067685,1.390339260541668,0.7605972861241128,0.1738750726055583,0.07122166805290382,1.308313235343596,0.2721694727560194,-0.2599826169822227,-0.1478288764519299,0.6605463437658003,826.4102564102565,810.6959706959707,815.5311355311355,678.9377289377289,1044.798534798535,-0.487854,0.120789,0.862122,3.282318,-2.676697,-2.564545,1,1,1,1,1,60.000000
2024-12-01 16:02:46.275,1.096297505010402,0.2696315311499441,0.2797600078216828,1.801960351641988,1.031006308770992,0.2728742938585183,0.09676119645541552,1.405552176593678,1.239370769559607,0.5834491035522588,0.5127202760668862,1.390339260541668,0.7605972861241128,0.1541725601886488,0.09202493601454076,1.308313235343596,0.2721694727560194,-0.2913878644382196,-0.09615411880510433,0.6605463437658003,814.3223443223443,793.3699633699634,798.2051282051282,932.7838827838829,575.3846153846154,-0.548462,0.105286,1.018555,2.444916,1.704712,7.013245,1,1,1,1,1,60.000000
2024-12-01 16:02:46.775,1.503943802169409,0.5399340435089588,0.5348755701944607,1.801960351641988,1.404887674671568,0.4827461281545897,0.247810405018573,1.405552176593678,1.542684110670152,0.5888266806333288,0.5224578933915144,1.390339260541668,1.072054806974294,0.1217119072560822,0.09912224582687057,1.308313235343596,0.3570464776204122,-0.234878536776449,-0.09572091545447151,0.6605463437658003,797.8021978021978,798.6080586080586,800.2197802197802,641.4652014652015,144.6520146520147,-0.439148,0.027771,0.815979,5.562744,0.388794,-1.674805,1,1,1,1,1,60.000000
2024-12-01 16:02:47.275,1.723612007328226,0.5626511149900001,0.5095784445262556,1.801960351641988,1.611930239529342,0.4774775364214645,0.2112236090678243,1.405552176593678,1.54243401352775,0.5787297932775441,0.519811795555887,1.390339260541668,1.189418586456477,0.151720803924676,0.04600428349874198,1.308313235343596,0.3929174616847788,0.08083990986921218,-0.1248542825322333,0.6605463437658003,782.4908424908425,807.0695970695971,796.996336996337,684.981684981685,641.0622710622711,-0.348022,0.107483,0.855164,-1.644897,1.054230,-0.246735,1,1,1,1,1,60.000000
2024-12-01 16:02:47.780,1.723612007328226,0.3794525615242795,0.289744900565998,1.801960351641988,1.611930239529342,0.3391170081402375,0.004684270043837297,1.405552176593678,1.54243401352775,0.4940374121660815,0.4804803512450619,1.390339260541668,1.189418586456477,0.1282766747662364,-0.06101444080534532,1.308313235343596,0.3929174616847788,0.0675542430945149,-0.278493847977373,0.6605463437658003,898.9377289377289,781.2820512820513,773.6263736263736,819.96336996337,1234.578754578755,-0.422546,0.041321,1.071655,6.602020,3.760834,-0.171967,1,1,1,1,1,65.000000
2024-12-01 16:02:47.913,,,,,,,,,,,,,,,,,,,,,,,,,,,,,,,,,,,,,,/muse/elements/blink
2024-12-01 16:02:48.275,1.723612007328226,0.1526051414494005,0.295154304102665,1.801960351641988,1.611930239529342,0.1856121040444888,0.1123454566730849,1.405552176593678,1.54243401352775,0.3020520241417511,0.318896932598953,1.390339260541668,1.189418586456477,0.1892281722893207,-0.07955005307306062,1.308313235343596,0.3929174616847788,0.1085413312065093,-0.3678378927592834,0.6605463437658003,762.7472527472528,794.981684981685,794.5787545787546,715.2014652014652,1007.728937728938,-0.491211,0.044434,1.057800,-1.958923,-2.639313,-0.358887,1,1,1,1,1,65.000000
2024-12-01 16:02:48.783,1.723612007328226,0.2541289168308316,0.484855719280268,1.801960351641988,1.611930239529342,0.2792802952913104,0.2832846161196735,1.405552176593678,1.54243401352775,0.2740390201220793,0.2861531346553403,1.390339260541668,1.189418586456477,0.05008120684630026,-0.05135722392969447,1.308313235343596,0.3929174616847788,-0.3263978090971326,-0.3379154913476745,0.6605463437658003,878.3882783882784,801.8315018315019,799.0109890109891,696.2637362637363,277.2161172161172,-0.372253,0.102478,0.782837,2.594452,-5.809479,1.383209,1,2,1,1,2,65.000000
2024-12-01 16:02:48.794,,,,,,,,,,,,,,,,,,,,,,,,,,,,,,,,,,,,,,/muse/elements/blink
2024-12-01 16:02:49.275,1.723612007328226,0.5045423656645538,0.7829567289316284,1.801960351641988,1.611930239529342,0.3771517488012222,0.4989856007753131,1.405552176593678,1.54243401352775,0.379590138194174,0.3766934777052857,1.390339260541668,1.189418586456477,0.07504057335697038,0.1826473992615782,1.308313235343596,0.3929174616847788,-0.177909701399633,-0.261681437682525,0.6605463437658003,766.7765567765568,795.3846153846154,800.2197802197802,745.0183150183151,822.7838827838829,-0.336426,0.045105,0.871643,2.504730,-1.540222,5.540314,1,2,1,1,2,65.000000
2024-12-01 16:02:49.775,1.723612007328226,0.3431215033249148,0.5347128885914703,1.801960351641988,1.611930239529342,0.2316423251951318,0.1313729810854592,1.405552176593678,1.54243401352775,0.244653696846525,0.1893576928381112,1.390339260541668,1.189418586456477,0.007839736208627717,0.1399489050245466,1.308313235343596,0.3929174616847788,-0.1898086244181103,-0.36719767333276,0.6605463437658003,759.92673992674,795.7875457875458,795.7875457875458,817.1428571428571,658.3882783882784,-0.321960,0.106812,0.984619,0.545807,-7.484283,-2.093506,1,2,1,1,2,65.000000
2024-12-01 16:02:49.832,,,,,,,,,,,,,,,,,,,,,,,,,,,,,,,,,,,,,,/muse/elements/blink
2024-12-01 16:02:50.022,,,,,,,,,,,,,,,,,,,,,,,,,,,,,,,,,,,,,,/muse/elements/blink
2024-12-01 16:02:50.276,1.723612007328226,0.2868908195584796,0.4375713022159424,1.801960351641988,1.611930239529342,0.2695946354927546,0.01851564820466926,1.405552176593678,1.54243401352775,0.3309617498177772,0.298217284208409,1.390339260541668,1.189418586456477,-0.03040466213209049,0.0766651109531713,1.308313235343596,0.3929174616847788,-0.2185971728778475,-0.4150113302441452,0.6605463437658003,711.5750915750916,798.6080586080586,801.025641025641,1002.893772893773,657.985347985348,-0.522644,0.118103,1.321533,5.876770,-5.443115,1.293488,1,2,1,1,2,65.000000
2024-12-01 16:02:50.775,1.723612007328226,0.1689378478804985,0.2665650007480185,1.801960351641988,1.611930239529342,0.166567208160599,-0.33028397850581,1.405552176593678,1.54243401352775,0.2421087594525173,0.1873267446851173,1.390339260541668,1.189418586456477,-0.0661100066185505,-0.02343584713551846,1.308313235343596,0.3929174616847788,-0.2804409019557352,-0.4017249640574624,0.6605463437658003,858.6446886446887,797.8021978021978,782.4908424908425,820.7692307692308,742.1978021978023,-0.330750,0.033081,0.902710,4.897308,-8.680573,-3.274841,1,2,1,1,2,65.000000
2024-12-01 16:02:50.953,,,,,,,,,,,,,,,,,,,,,,,,,,,,,,,,,,,,,,/muse/elements/blink
2024-12-01 16:02:51.275,1.723612007328226,0.1748226778725043,0.4277932400476409,1.801960351641988,1.611930239529342,0.2028839462485322,-0.2499232114104998,1.405552176593678,1.54243401352775,0.4579354973901483,0.2089383823453091,1.390339260541668,1.189418586456477,0.01223091555976325,-0.02293837731831111,1.308313235343596,0.3929174616847788,-0.2971801476843391,-0.3641164396670113,0.6605463437658003,751.4652014652015,799.8168498168499,808.2783882783883,674.9084249084249,164.3956043956044,-0.291443,0.152283,0.863525,1.009369,-2.938385,-2.923431,1,2,1,1,2,65.000000
2024-12-01 16:02:51.783,1.723612007328226,0.3059358398834289,0.5952026667088938,1.801960351641988,1.611930239529342,0.1663938851551131,-0.2057867347521944,1.405552176593678,1.54243401352775,0.5122200455116042,0.1802757378052551,1.390339260541668,1.189418586456477,0.07037398980983166,0.008246529042470268,1.308313235343596,0.3929174616847788,-0.3111114917670829,-0.2955796238703189,0.6605463437658003,708.7545787545788,809.8901098901099,804.6520146520147,630.5860805860806,651.941391941392,-0.354248,-0.001648,0.843811,4.157104,-6.168365,10.475006,1,2,1,1,2,65.000000
2024-12-01 16:02:51.940,,,,,,,,,,,,,,,,,,,,,,,,,,,,,,,,,,,,,,/muse/elements/blink
2024-12-01 16:02:52.275,1.723612007328226,0.3549803863999007,0.5869429678126552,1.801960351641988,1.611930239529342,0.2563008634613685,-0.0826248613941358,1.405552176593678,1.54243401352775,0.5212601245299708,0.4944650919955075,1.390339260541668,1.189418586456477,0.2031185648439632,0.03649461856115251,1.308313235343596,0.3929174616847788,-0.305816570743606,-0.2335568346463586,0.6605463437658003,820.3663003663004,802.2344322344322,798.6080586080586,669.2673992673992,723.6630036630037,-0.283142,0.140686,1.084961,-10.011444,4.187012,1.884155,1,2,1,1,2,65.000000
2024-12-01 16:02:52.361,,,,,,,,,,,,,,,,,,,,,,,,,,,,,,,,,,,,,,/muse/elements/blink
2024-12-01 16:02:52.775,1.723612007328226,0.3867321895443525,0.5799551366123422,1.801960351641988,1.611930239529342,0.2908151759053875,0.08434165351759547,1.405552176593678,1.54243401352775,0.5383022666511132,0.5429133753230432,1.390339260541668,1.189418586456477,0.2467037637802032,0.08553644714207619,1.308313235343596,0.3929174616847788,-0.3641850315616792,-0.1906373859060401,0.6605463437658003,1059.70695970696,788.9377289377289,774.4322344322345,1157.216117216117,754.2857142857143,-0.445129,0.114929,1.391235,3.446808,-6.437531,10.669403,1,2,1,1,2,65.000000
2024-12-01 16:02:52.875,,,,,,,,,,,,,,,,,,,,,,,,,,,,,,,,,,,,,,/muse/elements/blink
2024-12-01 16:02:53.275,1.723612007328226,0.4892431501498325,0.7980584141020033,1.801960351641988,1.611930239529342,0.4289698044648479,0.4203382659103643,1.405552176593678,1.54243401352775,0.3290779835410133,0.5019148994310917,1.390339260541668,1.189418586456477,0.4037547143825431,0.1174118209743553,1.308313235343596,0.3929174616847788,-0.1783616938769186,-0.2657474776173438,0.6605463437658003,865.8974358974359,801.4285714285714,806.2637362637363,672.893772893773,873.5531135531136,-0.416565,0.109131,1.133301,2.938385,3.536530,-4.889832,1,2,1,1,4,65.000000
2024-12-01 16:02:53.775,1.723612007328226,0.7812177722528739,0.9609094120951694,1.801960351641988,1.611930239529342,0.3779599463138989,0.5093536981731906,1.405552176593678,1.54243401352775,0.6768811333902673,0.5583101934861414,1.390339260541668,1.189418586456477,0.4431749545534347,0.132493903258192,1.308313235343596,0.3929174616847788,-0.1447628159390942,-0.3584434541369327,0.6605463437658003,816.3369963369963,802.2344322344322,799.4139194139194,925.5311355311355,1376.007326007326,-0.359985,0.168823,0.860168,0.231781,3.386993,6.736603,1,2,1,1,4,65.000000
2024-12-01 16:02:54.101,,,,,,,,,,,,,,,,,,,,,,,,,,,,,,,,,,,,,,/muse/elements/blink
2024-12-01 16:02:54.276,1.723612007328226,0.9046794865459955,1.019453748722154,1.801960351641988,1.611930239529342,0.3309088825632723,0.4978690472357973,1.405552176593678,1.54243401352775,0.690476323233954,0.3901045787004728,1.390339260541668,1.189418586456477,0.4311905445006349,0.1160656524534469,1.308313235343596,0.3929174616847788,-0.1446089407160613,-0.5063144467826937,0.6605463437658003,783.2967032967033,809.8901098901099,805.0549450549451,845.3479853479854,430.7326007326008,-0.294067,0.034729,0.745178,6.145935,-3.020630,-2.078552,1,2,1,1,2,65.000000
2024-12-01 16:02:54.711,,,,,,,,,,,,,,,,,,,,,,,,,,,,,,,,,,,,,,/muse/elements/blink
2024-12-01 16:02:54.775,1.723612007328226,0.8911834600323219,0.7718489731437091,1.801960351641988,1.611930239529342,0.06164899878852675,0.1636822273286431,1.405552176593678,1.54243401352775,0.690476323233954,0.3904639278713618,1.390339260541668,1.189418586456477,0.4093564520790129,0.1578352447599289,1.308313235343596,0.3929174616847788,-0.2133143939278734,-0.1624950102052254,0.6605463437658003,806.6666666666667,799.8168498168499,786.5201465201466,582.2344322344322,372.7106227106227,-0.325928,0.107849,0.762695,0.396271,1.495361,-3.162689,1,2,1,1,4,65.000000
2024-12-01 16:02:54.896,,,,,,,,,,,,,,,,,,,,,,,,,,,,,,,,,,,,,,/muse/elements/blink
2024-12-01 16:02:55.279,1.723612007328226,0.8098972892194068,0.9181140539666016,1.801960351641988,1.611930239529342,0.09039824702366663,0.3377285727892971,1.405552176593678,1.54243401352775,0.6166996798279709,0.4030238219061725,1.390339260541668,1.189418586456477,0.4019992420930173,0.2317751387440736,1.308313235343596,0.3929174616847788,-0.2112224732091618,-0.02228907224406297,0.6605463437658003,789.3406593406594,794.981684981685,793.7728937728938,1114.505494505494,1129.41391941392,-0.331909,0.046753,0.873657,4.388885,-17.488251,3.297272,1,2,1,1,4,65.000000
2024-12-01 16:02:55.775,1.723612007328226,0.6537298340681903,0.8817512968062424,1.801960351641988,1.611930239529342,0.4039120423255153,0.488253203454182,1.405552176593678,1.54243401352775,0.3945941547652815,0.6456680541435788,1.390339260541668,1.189418586456477,0.4866736607581101,0.2824014381761456,1.308313235343596,0.3929174616847788,0.004973744159508759,0.008273272065216967,0.6605463437658003,857.4358974358975,801.8315018315019,801.4285714285714,648.7179487179487,948.901098901099,-0.376343,0.190613,1.090515,-2.863617,-5.816956,-5.831909,1,2,1,1,4,65.000000
2024-12-01 16:02:56.275,1.723612007328226,0.6737770370307764,0.8557243591107117,1.801960351641988,1.611930239529342,0.5322424684954203,0.6391814284820548,1.405552176593678,1.54243401352775,0.4584460589146863,0.6406813664609029,1.390339260541668,1.189418586456477,0.4311659482478738,0.2119831209164109,1.308313235343596,0.3929174616847788,-0.2001258637582823,-0.1713577620762362,0.6605463437658003,735.3479853479854,807.0695970695971,794.5787545787546,731.3186813186813,915.0549450549451,-0.489136,0.184143,1.128235,5.966492,1.143951,9.106750,1,2,1,1,4,65.000000
2024-12-01 16:02:56.467,,,,,,,,,,,,,,,,,,,,,,,,,,,,,,,,,,,,,,/muse/elements/blink
2024-12-01 16:02:56.788,1.723612007328226,0.657553262047968,0.4947810501149695,1.801960351641988,1.611930239529342,0.3616317060892066,0.4749253543214308,1.405552176593678,1.54243401352775,0.4584460589146863,0.6327284033913848,1.390339260541668,1.189418586456477,0.3182910570237018,0.07398750438231345,1.308313235343596,0.3929174616847788,-0.3081817355695405,-0.6122676524271772,0.6605463437658003,895.3113553113553,803.040293040293,805.0549450549451,850.1831501831502,1152.783882783883,-0.369019,0.067505,0.830750,3.117828,-3.865509,-3.229980,1,2,1,1,2,65.000000
2024-12-01 16:02:57.148,,,,,,,,,,,,,,,,,,,,,,,,,,,,,,,,,,,,,,/muse/elements/blink
2024-12-01 16:02:57.287,1.723612007328226,0.6105805624522627,0.6627728918592242,1.801960351641988,1.611930239529342,0.224173563229451,0.2843268247111324,1.405552176593678,1.54243401352775,0.4584460589146863,0.5361371518948509,1.390339260541668,1.189418586456477,0.2099242740787726,-0.02921356833993874,1.308313235343596,0.3929174616847788,-0.353531060826506,-0.5773452481891064,0.6605463437658003,760.7326007326008,803.4432234432235,800.6227106227107,702.3076923076924,256.6666666666667,-0.328369,0.120300,0.806274,1.226196,-6.063690,0.209351,1,2,1,1,2,65.000000
2024-12-01 16:02:57.760,,,,,,,,,,,,,,,,,,,,,,,,,,,,,,,,,,,,,,/muse/elements/blink
2024-12-01 16:02:57.776,1.723612007328226,0.5694326788436623,0.6652722675053148,1.801960351641988,1.611930239529342,0.1914472892112811,0.08329493465761566,1.405552176593678,1.54243401352775,0.2458999666148351,0.2274554859923988,1.390339260541668,1.189418586456477,0.01092652111707738,-0.1190962661093159,1.308313235343596,0.3929174616847788,-0.3951535727748504,-0.4444121124223051,0.6605463437658003,750.2564102564103,796.1904761904763,797.8021978021978,738.974358974359,1135.860805860806,-0.353210,0.071533,0.866821,6.228180,-6.945953,4.486084,1,2,1,1,2,65.000000
2024-12-01 16:02:58.275,1.723612007328226,0.5199010922538604,0.6456770403976695,1.801960351641988,1.611930239529342,0.2997050644553462,0.2358807673448609,1.405552176593678,1.54243401352775,0.2715310524556713,0.2989042213485997,1.390339260541668,1.189418586456477,-0.02465116337783447,-0.1799474575291758,1.308313235343596,0.3929174616847788,-0.343488458362183,-0.381902192698672,0.6605463437658003,853.4065934065934,800.6227106227107,801.8315018315019,801.4285714285714,1626.630036630037,-0.339905,0.112427,1.005432,4.979553,-11.932983,5.487976,1,2,1,1,2,60.000000
2024-12-01 16:02:58.370,,,,,,,,,,,,,,,,,,,,,,,,,,,,,,,,,,,,,,/muse/elements/blink
2024-12-01 16:02:58.746,,,,,,,,,,,,,,,,,,,,,,,,,,,,,,,,,,,,,,/muse/elements/blink
2024-12-01 16:02:58.784,1.723612007328226,0.5764987948766317,0.266914215075101,1.801960351641988,1.611930239529342,0.4139810570965355,0.2930706909158324,1.405552176593678,1.54243401352775,0.2809097037882208,0.3551452214284599,1.390339260541668,1.189418586456477,0.02041952178321897,-0.146375343106483,1.308313235343596,0.3929174616847788,-0.324656548477691,-0.3694448412700954,0.6605463437658003,781.2820512820513,811.9047619047619,805.0549450549451,866.3003663003664,869.92673992674,-0.428101,0.100830,1.098816,0.478516,11.850739,7.252502,1,2,1,1,2,60.000000
2024-12-01 16:02:58.959,,,,,,,,,,,,,,,,,,,,,,,,,,,,,,,,,,,,,,/muse/elements/blink
2024-12-01 16:02:59.275,1.723612007328226,0.6486707675065152,-0.0104071787448695,1.801960351641988,1.611930239529342,0.4744394757808436,0.2138027502810899,1.405552176593678,1.54243401352775,0.2775411898814775,0.3596638060220149,1.390339260541668,1.189418586456477,0.04315235935306497,-0.03886486117886693,1.308313235343596,0.3929174616847788,-0.4295785995487773,-0.4007491191677456,0.6605463437658003,838.4981684981685,813.5164835164835,789.3406593406594,1003.699633699634,1197.106227106227,-0.420471,0.009583,0.916992,5.188904,-1.420593,-8.822632,1,2,1,1,4,60.000000
2024-12-01 16:02:59.610,,,,,,,,,,,,,,,,,,,,,,,,,,,,,,,,,,,,,,/muse/elements/blink
2024-12-01 16:02:59.775,,,,,,,,,,,,,,,,,,,,,,,,,,,,,,,,,,,,,,/muse/elements/blink
2024-12-01 16:02:59.790,1.723612007328226,0.7003436120503634,0.08943112502588249,1.801960351641988,1.611930239529342,0.5575048568587209,0.1385367027503039,1.405552176593678,1.54243401352775,0.3446176246333416,0.4639895835629335,1.390339260541668,1.189418586456477,0.07754758995571354,0.04982539123653276,1.308313235343596,0.3929174616847788,-0.4857633663810068,-0.4096804119126385,0.6605463437658003,892.893772893773,808.6813186813187,792.5641025641025,1007.728937728938,509.3040293040293,-0.338074,0.131409,0.752747,0.074768,1.203766,3.813171,1,2,1,1,4,60.000000
2024-12-01 16:02:59.964,,,,,,,,,,,,,,,,,,,,,,,,,,,,,,,,,,,,,,/muse/elements/blink
2024-12-01 16:03:00.201,,,,,,,,,,,,,,,,,,,,,,,,,,,,,,,,,,,,,,/muse/elements/blink
2024-12-01 16:03:00.282,1.723612007328226,0.8749455204831589,0.916979109205395,1.801960351641988,1.611930239529342,0.6835988559998579,0.6886073285108339,1.405552176593678,1.54243401352775,0.4499492095950656,0.5444724000269978,1.390339260541668,1.189418586456477,0.1537120871952,0.1516154428394612,1.308313235343596,0.3929174616847788,-0.4548412156197467,-0.2771249381589943,0.6605463437658003,775.2380952380953,799.0109890109891,800.2197802197802,627.7655677655678,29.81684981684982,-0.330688,0.051453,0.757507,5.345917,-0.957031,5.876770,1,2,1,1,4,60.000000
2024-12-01 16:03:00.714,,,,,,,,,,,,,,,,,,,,,,,,,,,,,,,,,,,,,,/muse/elements/blink
2024-12-01 16:03:00.775,1.723612007328226,0.8959339457570347,1.025952984205018,1.801960351641988,1.611930239529342,0.7010308847797909,0.7380105713392524,1.405552176593678,1.54243401352775,0.4603345754885727,0.5673491450184651,1.390339260541668,1.189418586456477,0.3063078850799058,0.1527155521468923,1.308313235343596,0.3929174616847788,-0.3451312481124187,-0.293852708292168,0.6605463437658003,768.3882783882784,796.996336996337,807.0695970695971,664.8351648351648,0,-0.268616,0.119263,0.718445,-1.211243,0.276642,4.044952,1,2,1,1,4,60.000000
2024-12-01 16:03:01.163,,,,,,,,,,,,,,,,,,,,,,,,,,,,,,,,,,,,,,/muse/elements/blink
2024-12-01 16:03:01.275,1.723612007328226,0.9675816410968017,1.068280080115639,1.801960351641988,1.611930239529342,0.6700266946250416,0.7849043417313322,1.405552176593678,1.54243401352775,0.5293735081934287,0.6157498350672165,1.390339260541668,1.189418586456477,0.4615640964775141,0.1745026121571358,1.308313235343596,0.3929174616847788,-0.302864603775784,-0.2727072240177801,0.6605463437658003,781.2820512820513,795.7875457875458,778.0586080586081,500.0366300366301,824.3956043956044,-0.336853,0.035461,0.808716,0.523376,-2.736511,0.411224,1,2,1,1,4,60.000000
2024-12-01 16:03:01.585,,,,,,,,,,,,,,,,,,,,,,,,,,,,,,,,,,,,,,/muse/elements/blink
2024-12-01 16:03:01.782,1.723612007328226,1.084751941806023,0.9456429110968967,1.801960351641988,1.611930239529342,0.6848114400146673,0.6476636816847872,1.405552176593678,1.54243401352775,0.5824555911171698,0.4988348188329084,1.390339260541668,1.189418586456477,0.5196301265673308,0.0905397833164705,1.308313235343596,0.3929174616847788,-0.2601388225742801,-0.3955587602493064,0.6605463437658003,832.0512820512821,799.8168498168499,790.952380952381,610.4395604395604,1627.838827838828,-0.317810,0.172913,0.811157,-4.665527,1.727142,1.360779,1,2,1,1,4,60.000000
2024-12-01 16:03:02.274,1.723612007328226,1.136895623649344,0.7495749220166757,1.801960351641988,1.611930239529342,0.7483542719981514,0.6460719477126725,1.405552176593678,1.54243401352775,0.7757182789696658,0.4613549337652134,1.390339260541668,1.189418586456477,0.5187944417565616,0.1360066331295981,1.308313235343596,0.3929174616847788,-0.1566064860224056,-0.47887963553019,0.6605463437658003,884.8351648351648,805.0549450549451,817.5457875457876,550.8058608058608,1627.032967032967,-0.404297,0.039612,1.096313,7.476807,4.089813,-1.487885,1,2,1,1,4,60.000000
2024-12-01 16:03:02.317,,,,,,,,,,,,,,,,,,,,,,,,,,,,,,,,,,,,,,/muse/elements/blink
2024-12-01 16:03:02.737,,,,,,,,,,,,,,,,,,,,,,,,,,,,,,,,,,,,,,/muse/elements/blink
2024-12-01 16:03:02.774,1.723612007328226,1.158147683616279,0.994153342991981,1.801960351641988,1.611930239529342,0.8415206027337235,0.8363596079269353,1.405552176593678,1.54243401352775,0.8488357786950328,0.6250008217114096,1.390339260541668,1.189418586456477,0.3994185863315126,-0.1336324004268557,1.308313235343596,0.3929174616847788,0.006983158767848936,-0.5144253145187682,0.6605463437658003,741.7948717948718,796.996336996337,786.5201465201466,859.4505494505495,35.86080586080586,-0.411804,0.231934,1.015747,5.188904,-8.972168,-5.166473,1,2,1,1,2,60.000000
2024-12-01 16:03:03.280,1.723612007328226,1.021795542668704,0.8839511151941495,1.801960351641988,1.611930239529342,0.809891350697409,0.6738860955604967,1.405552176593678,1.54243401352775,0.8927019916596014,0.6800062413455841,1.390339260541668,1.189418586456477,0.4381547869166989,-0.1434372630247592,1.308313235343596,0.3929174616847788,0.1072573474823581,-0.3787811739248463,0.6605463437658003,819.1575091575091,790.1465201465202,834.4688644688645,667.2527472527473,1626.630036630037,-0.449097,0.198242,0.969727,1.271057,5.562744,7.917938,1,2,1,1,4,60.000000
2024-12-01 16:03:03.505,,,,,,,,,,,,,,,,,,,,,,,,,,,,,,,,,,,,,,/muse/elements/blink
2024-12-01 16:03:03.775,1.723612007328226,1.254397389146163,0.8415755016596227,1.801960351641988,1.611930239529342,0.9381573815426013,0.6501216343098662,1.405552176593678,1.54243401352775,0.8901853308863836,0.7200282974531237,1.390339260541668,1.189418586456477,0.426066379298373,-0.1369161540251731,1.308313235343596,0.3929174616847788,0.0900803165532463,-0.3722604196915501,0.6605463437658003,919.8901098901099,814.7252747252747,804.6520146520147,904.981684981685,0,-0.415344,0.083557,0.769348,1.794434,2.452393,4.172058,1,2,1,1,4,60.000000
2024-12-01 16:03:03.832,,,,,,,,,,,,,,,,,,,,,,,,,,,,,,,,,,,,,,/muse/elements/blink
2024-12-01 16:03:04.063,,,,,,,,,,,,,,,,,,,,,,,,,,,,,,,,,,,,,,/muse/elements/blink
2024-12-01 16:03:04.274,1.723612007328226,1.344989726355256,0.7608581144226851,1.801960351641988,1.611930239529342,1.037512027261196,0.6217287635059636,1.405552176593678,1.54243401352775,0.8832523298784528,0.7093054816671497,1.390339260541668,1.189418586456477,0.3688768578278104,-0.07729825926093369,1.308313235343596,0.3929174616847788,0.1660950602456164,-0.3518952917563355,0.6605463437658003,723.2600732600732,787.3260073260074,801.4285714285714,990.8058608058608,0,-0.316650,0.169373,0.731384,-1.674805,-5.069275,-3.140259,1,2,1,1,4,60.000000
2024-12-01 16:03:04.366,,,,,,,,,,,,,,,,,,,,,,,,,,,,,,,,,,,,,,/muse/elements/blink
2024-12-01 16:03:04.626,,,,,,,,,,,,,,,,,,,,,,,,,,,,,,,,,,,,,,/muse/elements/blink
2024-12-01 16:03:04.776,1.723612007328226,1.335234637813733,0.9669648329176623,1.801960351641988,1.611930239529342,1.026286140649011,0.9753705777181816,1.405552176593678,1.54243401352775,0.9301699685166791,0.6691519875091435,1.390339260541668,1.189418586456477,0.3046667565840413,0.1314793184694943,1.308313235343596,0.3929174616847788,0.1366466747363823,-0.2622323866272228,0.6605463437658003,722.0512820512821,791.3553113553114,797.3992673992674,728.0952380952381,867.5091575091575,-0.392456,0.092041,0.749023,-4.560852,0.643005,-0.942078,1,2,1,1,4,60.000000
2024-12-01 16:03:04.975,,,,,,,,,,,,,,,,,,,,,,,,,,,,,,,,,,,,,,/muse/elements/blink
2024-12-01 16:03:05.166,,,,,,,,,,,,,,,,,,,,,,,,,,,,,,,,,,,,,,/muse/elements/blink
2024-12-01 16:03:05.274,1.723612007328226,1.094002706526751,0.9157820420646403,1.801960351641988,1.611930239529342,0.8322640828394097,0.9095270447704678,1.405552176593678,1.54243401352775,0.9281894626417393,0.666190668826916,1.390339260541668,1.189418586456477,0.5174053918378266,0.3490009058126404,1.308313235343596,0.3929174616847788,0.3297607247813423,-0.138734140276549,0.6605463437658003,800.2197802197802,799.4139194139194,792.1611721611722,1195.897435897436,1616.556776556777,-0.447083,0.225159,1.100647,2.138367,-16.792908,-6.736603,1,2,1,1,4,60.000000
2024-12-01 16:03:05.680,,,,,,,,,,,,,,,,,,,,,,,,,,,,,,,,,,,,,,/muse/elements/blink
2024-12-01 16:03:05.792,1.723612007328226,1.071794824552714,0.7331223764082896,1.801960351641988,1.611930239529342,0.8396862467651514,0.7915536770083692,1.405552176593678,1.54243401352775,0.9351014166277225,0.6686509477381984,1.390339260541668,1.189418586456477,0.6601682094585528,0.3774483213109384,1.308313235343596,0.3929174616847788,0.4432494101118549,-0.1947956758916914,0.6605463437658003,921.0989010989011,809.4871794871796,801.8315018315019,734.1391941391942,871.5384615384615,-0.471313,0.047913,1.043274,5.121613,5.600128,6.011353,1,2,1,1,4,60.000000
2024-12-01 16:03:05.963,,,,,,,,,,,,,,,,,,,,,,,,,,,,,,,,,,,,,,/muse/elements/blink
2024-12-01 16:03:06.286,1.723612007328226,0.9933430853888363,0.31132233213178,1.801960351641988,1.611930239529342,0.8321203200015264,0.4673969280294956,1.405552176593678,1.54243401352775,0.804994638903449,0.5561925116387252,1.390339260541668,1.189418586456477,0.726832163859234,0.4306781069931345,1.308313235343596,0.3929174616847788,0.5070533743872649,-0.1851368477101865,0.6605463437658003,750.6593406593407,792.967032967033,797.3992673992674,651.941391941392,898.9377289377289,-0.492737,0.085876,0.938354,8.575897,-2.811279,-5.129089,1,2,1,1,4,60.000000
2024-12-01 16:03:06.291,,,,,,,,,,,,,,,,,,,,,,,,,,,,,,,,,,,,,,/muse/elements/blink
2024-12-01 16:03:06.775,1.723612007328226,1.025791407232106,0.3430378027518814,1.801960351641988,1.611930239529342,0.8979353917976722,0.4869011652910826,1.405552176593678,1.54243401352775,0.7949183817618316,0.5584690371613891,1.390339260541668,1.189418586456477,0.6032961420270908,0.4013985950486265,1.308313235343596,0.3929174616847788,0.4814958243616431,-0.1650148900215896,0.6605463437658003,981.941391941392,829.6336996336996,826.4102564102565,939.6336996336996,1356.263736263736,-0.416199,0.205933,0.873779,1.547699,1.166382,5.772095,1,2,1,1,2,60.000000
2024-12-01 16:03:06.895,,,,,,,,,,,,,,,,,,,,,,,,,,,,,,,,,,,,,,/muse/elements/blink
2024-12-01 16:03:07.085,,,,,,,,,,,,,,,,,,,,,,,,,,,,,,,,,,,,,,/muse/elements/blink
2024-12-01 16:03:07.273,,,,,,,,,,,,,,,,,,,,,,,,,,,,,,,,,,,,,,/muse/elements/blink
2024-12-01 16:03:07.283,1.723612007328226,1.022064178252909,0.9123449621919432,1.801960351641988,1.611930239529342,0.917175831847332,0.5899534154433758,1.405552176593678,1.54243401352775,0.7133759795299877,0.5349814084248242,1.390339260541668,1.189418586456477,0.4364796464469892,0.3076298123356237,1.308313235343596,0.3929174616847788,0.4562704721304477,-0.04998302543264357,0.6605463437658003,649.1208791208792,792.1611721611722,790.952380952381,711.1721611721612,0,-0.411316,0.087646,0.759766,3.828125,-2.646790,-2.078552,1,2,1,1,4,60.000000
2024-12-01 16:03:07.775,1.723612007328226,1.01241001023808,1.21583012681169,1.801960351641988,1.611930239529342,0.9099842539953689,0.7695009125383225,1.405552176593678,1.54243401352775,0.6842765007456576,0.5558708669611198,1.390339260541668,1.189418586456477,0.4132058133343113,0.2341888528727782,1.308313235343596,0.3929174616847788,0.4488306912221388,0.00219582688743301,0.6605463437658003,683.7728937728938,780.4761904761905,793.3699633699634,698.2783882783883,559.2673992673992,-0.316345,0.164185,0.771179,4.015045,2.915955,1.061707,1,2,1,1,4,60.000000
2024-12-01 16:03:08.110,,,,,,,,,,,,,,,,,,,,,,,,,,,,,,,,,,,,,,/muse/elements/blink
2024-12-01 16:03:08.275,1.723612007328226,1.117023855360445,1.267478523660831,1.801960351641988,1.611930239529342,1.075793563559209,0.8188876869028757,1.405552176593678,1.54243401352775,0.7788003778914637,0.5363210053378417,1.390339260541668,1.189418586456477,0.4932698616386282,0.1799205428373654,1.308313235343596,0.3929174616847788,0.3988896199010351,-0.07864768577628853,0.6605463437658003,706.3369963369963,799.4139194139194,790.5494505494506,1035.934065934066,1626.630036630037,-0.417297,0.049438,1.121521,6.923523,-14.490051,2.624359,1,2,1,1,4,65.000000
2024-12-01 16:03:08.302,,,,,,,,,,,,,,,,,,,,,,,,,,,,,,,,,,,,,,/muse/elements/blink
2024-12-01 16:03:08.781,1.723612007328226,1.189838748958837,1.170790557204762,1.801960351641988,1.611930239529342,1.00052847874205,0.7791377421453601,1.405552176593678,1.54243401352775,0.8898140153197323,0.5302360599393646,1.390339260541668,1.189418586456477,0.4252410021249002,0.1914662484927858,1.308313235343596,0.3929174616847788,0.2350907924126173,-0.2804786428482288,0.6605463437658003,831.6483516483516,782.893772893773,793.7728937728938,673.2967032967033,1085.494505494506,-0.354065,0.211914,1.022827,8.030090,3.312225,-4.949646,1,2,1,1,4,65.000000
2024-12-01 16:03:08.818,,,,,,,,,,,,,,,,,,,,,,,,,,,,,,,,,,,,,,/muse/elements/blink
2024-12-01 16:03:09.234,,,,,,,,,,,,,,,,,,,,,,,,,,,,,,,,,,,,,,/muse/elements/blink
2024-12-01 16:03:09.275,1.723612007328226,1.097004353718568,0.5796578534595772,1.801960351641988,1.611930239529342,0.8833254130407027,0.403866118983371,1.405552176593678,1.54243401352775,0.8898140153197323,0.3808552898565476,1.390339260541668,1.189418586456477,0.3674131031838824,0.1805023556271625,1.308313235343596,0.3929174616847788,0.1820035646195026,-0.3775110930905845,0.6605463437658003,822.3809523809524,796.996336996337,786.9230769230769,689.8168498168499,1624.615384615385,-0.506470,0.229980,1.095642,2.183228,-3.544006,7.603912,1,2,1,1,2,65.000000
2024-12-01 16:03:09.775,1.723612007328226,1.045076741522364,0.6237418190835525,1.801960351641988,1.611930239529342,0.75105470802879,0.4610048999655086,1.405552176593678,1.54243401352775,0.7955641336854877,0.2848311182171409,1.390339260541668,1.189418586456477,0.356843902741051,0.095537819610038,1.308313235343596,0.3929174616847788,0.2720162963222327,-0.3185067624750008,0.6605463437658003,642.6739926739926,782.0879120879121,792.1611721611722,709.5604395604396,0,-0.396973,0.048157,0.762146,4.710388,-1.368256,-6.160889,1,2,1,1,2,65.000000
2024-12-01 16:03:09.850,,,,,,,,,,,,,,,,,,,,,,,,,,,,,,,,,,,,,,/muse/elements/blink
2024-12-01 16:03:10.283,1.723612007328226,0.9158378718356236,0.6880497659280457,1.801960351641988,1.611930239529342,0.730430873157023,0.5196109041330798,1.405552176593678,1.54243401352775,0.6820634705710984,0.3984394936484354,1.390339260541668,1.189418586456477,0.3226078634391629,0.09440068549061049,1.308313235343596,0.3929174616847788,0.186921096152786,-0.2636147609511597,0.6605463437658003,820.7692307692308,797.8021978021978,798.2051282051282,786.1172161172161,0,-0.334412,0.173218,0.762878,2.302856,-2.721558,2.272949,1,2,1,1,4,65.000000
2024-12-01 16:03:10.455,,,,,,,,,,,,,,,,,,,,,,,,,,,,,,,,,,,,,,/muse/elements/blink
2024-12-01 16:03:10.775,1.723612007328226,1.069721989895204,0.6625571745039567,1.801960351641988,1.611930239529342,0.8763562882376541,0.559187570248896,1.405552176593678,1.54243401352775,0.7319101996368546,0.3789702847763122,1.390339260541668,1.189418586456477,0.2674273155753278,0.1088281472304693,1.308313235343596,0.3929174616847788,0.123744684993477,-0.2873242145890665,0.6605463437658003,753.8827838827839,782.4908424908425,789.3406593406594,703.1135531135532,644.6886446886447,-0.368774,0.062988,0.763306,1.622467,-2.863617,-2.086029,1,2,1,1,4,65.000000
2024-12-01 16:03:11.275,1.723612007328226,1.172544491001473,0.6608249860993251,1.801960351641988,1.611930239529342,0.9583703337803481,0.4942949944198357,1.405552176593678,1.54243401352775,0.7319101996368546,0.3789702847763122,1.390339260541668,1.189418586456477,0.2126132845962196,0.1349066678097822,1.308313235343596,0.3929174616847788,-0.1088268912655,-0.3151810502802866,0.6605463437658003,806.6666666666667,806.2637362637363,802.6373626373627,1080.659340659341,1626.630036630037,-0.377747,0.204651,0.976135,-0.553284,-6.033783,-1.114044,1,2,1,1,4,65.000000
2024-12-01 16:03:11.337,,,,,,,,,,,,,,,,,,,,,,,,,,,,,,,,,,,,,,/muse/elements/blink
2024-12-01 16:03:11.526,,,,,,,,,,,,,,,,,,,,,,,,,,,,,,,,,,,,,,/muse/elements/blink
2024-12-01 16:03:11.759,,,,,,,,,,,,,,,,,,,,,,,,,,,,,,,,,,,,,,/muse/elements/blink
2024-12-01 16:03:11.777,1.723612007328226,1.273377089848686,0.6659806755755282,1.801960351641988,1.611930239529342,0.9729367603184055,0.4734677141297408,1.405552176593678,1.54243401352775,0.7319101996368546,0.439698297296694,1.390339260541668,1.189418586456477,0.1422977573970321,0.09839380666836395,1.308313235343596,0.3929174616847788,-0.1304807897456547,-0.222871542363846,0.6605463437658003,822.7838827838829,794.1758241758242,790.1465201465202,520.989010989011,258.6813186813187,-0.492310,0.129211,1.227356,11.103058,7.768402,6.325378,1,2,1,1,4,65.000000
2024-12-01 16:03:12.275,1.723612007328226,1.248534621671491,0.5325565893021718,1.801960351641988,1.611930239529342,0.8719180908354344,0.3719525249116463,1.405552176593678,1.54243401352775,0.5896271877767503,0.4174414156228193,1.390339260541668,1.189418586456477,0.1926101031480345,0.06298795400964038,1.308313235343596,0.3929174616847788,-0.168077036670469,-0.2507189045926123,0.6605463437658003,865.8974358974359,807.4725274725275,808.6813186813187,940.4395604395605,1627.838827838828,-0.474915,0.090332,0.972900,4.658051,-4.127197,-7.775879,1,2,1,1,4,65.000000
2024-12-01 16:03:12.281,,,,,,,,,,,,,,,,,,,,,,,,,,,,,,,,,,,,,,/muse/elements/blink
2024-12-01 16:03:12.781,1.723612007328226,1.148546942725449,0.6367890801334058,1.801960351641988,1.611930239529342,0.9346638733586822,0.3111551547085909,1.405552176593678,1.54243401352775,0.6313271490941943,0.4004090444360593,1.390339260541668,1.189418586456477,0.1988676062771522,0.02679211102717854,1.308313235343596,0.3929174616847788,-0.1907021351563458,-0.3452286150445607,0.6605463437658003,901.7582417582418,823.1868131868132,807.0695970695971,862.2710622710623,117.2527472527473,-0.385193,0.171021,0.752441,1.914062,-1.173859,4.299164,1,2,1,1,2,65.000000
2024-12-01 16:03:12.884,,,,,,,,,,,,,,,,,,,,,,,,,,,,,,,,,,,,,,/muse/elements/blink
2024-12-01 16:03:13.275,1.723612007328226,1.220585342659024,0.7255087715940762,1.801960351641988,1.611930239529342,0.9026134797108722,0.3006791542238657,1.405552176593678,1.54243401352775,0.5476969204066775,0.2897753778765514,1.390339260541668,1.189418586456477,0.2226396564214491,-0.00903526629392889,1.308313235343596,0.3929174616847788,-0.2093115411689217,-0.4693006216835507,0.6605463437658003,684.1758241758242,797.3992673992674,796.1904761904763,801.8315018315019,3.626373626373626,-0.374573,0.063904,0.802368,-1.218719,-7.940369,-0.351410,1,2,1,1,4,65.000000
2024-12-01 16:03:13.374,,,,,,,,,,,,,,,,,,,,,,,,,,,,,,,,,,,,,,/muse/elements/blink
2024-12-01 16:03:13.782,1.723612007328226,1.198373319682467,0.709713815376533,1.801960351641988,1.611930239529342,0.8975643087990401,0.2820460846036397,1.405552176593678,1.54243401352775,0.526844090083368,0.1854442708657066,1.390339260541668,1.189418586456477,0.2901920336790415,-0.05674769182125788,1.308313235343596,0.3929174616847788,-0.2429304188549909,-0.5424223282724477,0.6605463437658003,737.7655677655678,794.1758241758242,799.8168498168499,496.8131868131868,384.3956043956044,-0.293640,0.137268,0.779846,-2.250519,0.411224,-2.497253,1,2,1,1,4,65.000000
2024-12-01 16:03:14.095,,,,,,,,,,,,,,,,,,,,,,,,,,,,,,,,,,,,,,/muse/elements/blink
2024-12-01 16:03:14.275,1.723612007328226,1.179441910162933,0.6487203245084765,1.801960351641988,1.611930239529342,0.8319583683691332,0.2401731239330054,1.405552176593678,1.54243401352775,0.5173511889842958,0.2263807351713873,1.390339260541668,1.189418586456477,0.4155817081526819,-0.02508269878967203,1.308313235343596,0.3929174616847788,-0.1081374989287762,-0.591217119323551,0.6605463437658003,763.5531135531136,783.2967032967033,822.7838827838829,926.7399267399268,1626.630036630037,-0.290771,0.022217,0.846497,9.846954,-7.020721,5.031891,1,2,1,1,4,65.000000
2024-12-01 16:03:14.497,,,,,,,,,,,,,,,,,,,,,,,,,,,,,,,,,,,,,,/muse/elements/blink
2024-12-01 16:03:14.712,,,,,,,,,,,,,,,,,,,,,,,,,,,,,,,,,,,,,,/muse/elements/blink
2024-12-01 16:03:14.775,1.723612007328226,1.12542634543743,0.6224590044250931,1.801960351641988,1.611930239529342,0.8691498926618115,0.4588573765421545,1.405552176593678,1.54243401352775,0.4810740940328339,0.6727641520908769,1.390339260541668,1.189418586456477,0.4397582290202883,0.04619613523403812,1.308313235343596,0.3929174616847788,-0.06125363349075453,-0.4099257128030817,0.6605463437658003,1081.868131868132,813.919413919414,799.0109890109891,1010.549450549451,1623.809523809524,-0.405212,0.207703,1.145752,2.123413,0.388794,-3.790741,1,2,1,1,2,65.000000
2024-12-01 16:03:14.921,,,,,,,,,,,,,,,,,,,,,,,,,,,,,,,,,,,,,,/muse/elements/blink
2024-12-01 16:03:15.275,1.723612007328226,1.168774820246752,0.6949402821436163,1.801960351641988,1.611930239529342,1.020505740872405,0.6177046033766301,1.405552176593678,1.54243401352775,0.5093994796243737,0.7008458049879162,1.390339260541668,1.189418586456477,0.37238192348233,0.1378062855780486,1.308313235343596,0.3929174616847788,-0.04751142158504166,-0.3437932126774724,0.6605463437658003,763.1501831501831,802.6373626373627,803.040293040293,912.6373626373627,782.0879120879121,-0.362915,0.165649,0.863647,3.267365,3.050537,9.084320,1,2,1,1,4,65.000000
2024-12-01 16:03:15.339,,,,,,,,,,,,,,,,,,,,,,,,,,,,,,,,,,,,,,/muse/elements/blink
2024-12-01 16:03:15.506,,,,,,,,,,,,,,,,,,,,,,,,,,,,,,,,,,,,,,/muse/elements/blink
2024-12-01 16:03:15.775,1.723612007328226,1.24715665530643,0.7716293863271648,1.801960351641988,1.611930239529342,1.128137956619234,0.6722259446845383,1.405552176593678,1.54243401352775,0.4446767518632028,0.7008458049879162,1.390339260541668,1.189418586456477,0.2564771488565387,0.1289139191919982,1.308313235343596,0.3929174616847788,-0.02190826002404524,-0.2925496467381531,0.6605463437658003,917.8754578754579,808.6813186813187,801.4285714285714,960.5860805860806,486.7399267399268,-0.355408,0.060059,0.856018,6.893616,-4.344025,-11.200256,1,2,1,1,4,65.000000
2024-12-01 16:03:15.925,,,,,,,,,,,,,,,,,,,,,,,,,,,,,,,,,,,,,,/muse/elements/blink
2024-12-01 16:03:16.275,1.723612007328226,1.262245626124091,0.8075314549351158,1.801960351641988,1.611930239529342,1.17001121617854,0.5874505974639277,1.405552176593678,1.54243401352775,0.5872235243901681,0.6710965362484674,1.390339260541668,1.189418586456477,0.2898823620417232,0.1495573912858391,1.308313235343596,0.3929174616847788,0.1205778727400831,-0.3557720435925554,0.6605463437658003,681.3553113553114,788.1318681318681,794.981684981685,632.1978021978022,0,-0.396057,0.139404,0.794678,1.413116,-2.788849,-0.441132,1,2,1,1,4,65.000000
2024-12-01 16:03:16.299,,,,,,,,,,,,,,,,,,,,,,,,,,,,,,,,,,,,,,/muse/elements/blink
2024-12-01 16:03:16.743,,,,,,,,,,,,,,,,,,,,,,,,,,,,,,,,,,,,,,/muse/elements/blink
2024-12-01 16:03:16.780,1.723612007328226,1.233986810238001,0.913724894095978,1.801960351641988,1.611930239529342,1.118167957490336,0.5345213707342721,1.405552176593678,1.54243401352775,0.6625336839944317,0.4744394645853163,1.390339260541668,1.189418586456477,0.3789446874881764,0.1684289719807249,1.308313235343596,0.3929174616847788,0.2025402315307005,-0.2463460296963976,0.6605463437658003,738.974358974359,784.5054945054945,803.040293040293,952.1245421245421,1626.227106227106,-0.350159,0.034424,0.813599,8.553467,-6.362762,8.030090,1,2,1,1,4,65.000000
2024-12-01 16:03:17.163,,,,,,,,,,,,,,,,,,,,,,,,,,,,,,,,,,,,,,/muse/elements/blink
2024-12-01 16:03:17.275,1.723612007328226,1.244634192810988,1.147436358236684,1.801960351641988,1.611930239529342,1.075634495364147,0.598674831029551,1.405552176593678,1.54243401352775,0.7976735045839463,0.4853496063801437,1.390339260541668,1.189418586456477,0.4007253063772479,0.1345266027084655,1.308313235343596,0.3929174616847788,0.2202284259230332,-0.09946065078364592,0.6605463437658003,1044.798534798535,817.1428571428571,803.040293040293,905.7875457875458,1626.630036630037,-0.372498,0.196228,0.996399,4.665527,-11.633911,-1.136475,1,2,1,1,4,65.000000
2024-12-01 16:03:17.334,,,,,,,,,,,,,,,,,,,,,,,,,,,,,,,,,,,,,,/muse/elements/blink
2024-12-01 16:03:17.545,,,,,,,,,,,,,,,,,,,,,,,,,,,,,,,,,,,,,,/muse/elements/blink
2024-12-01 16:03:17.793,1.723612007328226,1.328019194845413,1.105245188600916,1.801960351641988,1.611930239529342,1.130609889128734,0.5819930826551621,1.405552176593678,1.54243401352775,0.8261329997018829,0.3283050175124273,1.390339260541668,1.189418586456477,0.3389239142281995,0.04783662450052834,1.308313235343596,0.3929174616847788,0.1641698287559629,-0.0197314607000501,0.6605463437658003,723.6630036630037,789.7435897435897,792.967032967033,543.5531135531136,10.07326007326007,-0.508667,0.206909,1.105164,2.018738,7.222595,5.884247,1,2,1,1,4,65.000000
2024-12-01 16:03:18.010,,,,,,,,,,,,,,,,,,,,,,,,,,,,,,,,,,,,,,/muse/elements/blink
2024-12-01 16:03:18.275,1.723612007328226,1.355634853007618,1.004726370134225,1.801960351641988,1.611930239529342,1.12712287018415,0.4811233308797476,1.405552176593678,1.54243401352775,0.8116186149988812,0.3230701948991953,1.390339260541668,1.189418586456477,0.4611709870856548,0.02985600772264689,1.308313235343596,0.3929174616847788,0.3055893307919599,-0.06073707805558228,0.6605463437658003,795.3846153846154,807.8754578754579,803.8461538461539,815.934065934066,0,-0.410461,0.033813,0.815430,6.437531,-2.355194,-5.659943,1,2,1,1,4,65.000000
2024-12-01 16:03:18.489,,,,,,,,,,,,,,,,,,,,,,,,,,,,,,,,,,,,,,/muse/elements/blink
2024-12-01 16:03:18.781,1.723612007328226,1.326749890038867,0.7186798680930424,1.801960351641988,1.611930239529342,1.082845566220306,0.5667426704636745,1.405552176593678,1.54243401352775,0.7601543461969104,0.5340717256978735,1.390339260541668,1.189418586456477,0.5516961425228312,0.0858963396744144,1.308313235343596,0.3929174616847788,0.3532534079112654,-0.1749031813521107,0.6605463437658003,726.8864468864469,801.8315018315019,804.2490842490843,641.0622710622711,348.9377289377289,-0.306519,0.128296,0.746216,-1.076660,3.035583,2.026215,1,2,1,1,4,60.000000
2024-12-01 16:03:19.275,1.723612007328226,1.325357837318269,0.7424302581251695,1.801960351641988,1.611930239529342,1.095540220376368,0.6283048157692471,1.405552176593678,1.54243401352775,0.8547888161176664,0.6668361369067235,1.390339260541668,1.189418586456477,0.6725295777216598,0.1540484494806649,1.308313235343596,0.3929174616847788,0.4224806332994815,-0.309225429996307,0.6605463437658003,954.5421245421246,811.0989010989011,794.1758241758242,856.6300366300367,1626.630036630037,-0.407043,0.043213,0.955750,5.764618,-7.327271,6.422577,1,2,1,1,4,60.000000
2024-12-01 16:03:19.281,,,,,,,,,,,,,,,,,,,,,,,,,,,,,,,,,,,,,,/muse/elements/blink
2024-12-01 16:03:19.774,1.723612007328226,1.277450817706545,0.97320766056493,1.801960351641988,1.611930239529342,1.061077446014275,0.709299760215645,1.405552176593678,1.54243401352775,0.9494382288497729,0.6777487954822012,1.390339260541668,1.189418586456477,0.7493637289777797,0.2296190280810435,1.308313235343596,0.3929174616847788,0.4586304849023018,-0.3648903132269276,0.6605463437658003,906.5934065934066,799.0109890109891,803.4432234432235,804.6520146520147,495.2014652014652,-0.372681,0.259460,1.002075,-3.656158,5.293579,-6.003876,1,2,1,1,4,60.000000
2024-12-01 16:03:19.871,,,,,,,,,,,,,,,,,,,,,,,,,,,,,,,,,,,,,,/muse/elements/blink
2024-12-01 16:03:20.276,1.723612007328226,1.156890031056332,1.030033108438922,1.801960351641988,1.611930239529342,1.08947361076466,0.5400111703399495,1.405552176593678,1.54243401352775,0.9538733816495812,0.6520663458128465,1.390339260541668,1.189418586456477,0.6415829839412857,0.2909110344306797,1.308313235343596,0.3929174616847788,0.3266381613815083,-0.3914473238626675,0.6605463437658003,792.5641025641025,792.967032967033,788.9377289377289,608.8278388278388,1342.564102564103,-0.400208,0.206116,0.945374,-2.332764,-5.031891,1.286011,1,2,1,1,4,60.000000
2024-12-01 16:03:20.293,,,,,,,,,,,,,,,,,,,,,,,,,,,,,,,,,,,,,,/muse/elements/blink
2024-12-01 16:03:20.599,,,,,,,,,,,,,,,,,,,,,,,,,,,,,,,,,,,,,,/muse/elements/blink
2024-12-01 16:03:20.774,1.723612007328226,1.017942168314206,0.9730352853297394,1.801960351641988,1.611930239529342,0.9312522700447627,0.3438713250944294,1.405552176593678,1.54243401352775,0.9131608976545484,0.5774938161002993,1.390339260541668,1.189418586456477,0.5898109999975429,0.229736925845476,1.308313235343596,0.3929174616847788,0.4652449629700893,-0.3657408571380742,0.6605463437658003,709.9633699633699,792.967032967033,797.3992673992674,877.985347985348,0,-0.367981,0.064941,0.801880,6.916046,-3.970184,-4.142151,1,2,1,1,2,60.000000
2024-12-01 16:03:20.998,,,,,,,,,,,,,,,,,,,,,,,,,,,,,,,,,,,,,,/muse/elements/blink
2024-12-01 16:03:21.189,,,,,,,,,,,,,,,,,,,,,,,,,,,,,,,,,,,,,,/muse/elements/blink
2024-12-01 16:03:21.274,1.723612007328226,1.006481812952533,0.7729025828405679,1.801960351641988,1.611930239529342,0.8206932951299641,0.3210093469949745,1.405552176593678,1.54243401352775,0.7458007252749741,0.5633598918209052,1.390339260541668,1.189418586456477,0.4941709730207988,0.07584704822144238,1.308313235343596,0.3929174616847788,0.3824898443270152,-0.373717191013246,0.6605463437658003,772.4175824175825,792.5641025641025,776.4468864468864,756.7032967032967,1626.630036630037,-0.324768,0.193298,0.934448,1.420593,-5.988922,-11.379700,1,2,1,1,4,60.000000
2024-12-01 16:03:21.562,,,,,,,,,,,,,,,,,,,,,,,,,,,,,,,,,,,,,,/muse/elements/blink
2024-12-01 16:03:21.784,1.723612007328226,1.119080720914023,0.5799790617484651,1.801960351641988,1.611930239529342,0.7657871383274522,0.4669460521509125,1.405552176593678,1.54243401352775,0.7250645024108576,0.636136457158093,1.390339260541668,1.189418586456477,0.4001522930351133,-0.05957722384363555,1.308313235343596,0.3929174616847788,0.3405978128655184,-0.4871610693477983,0.6605463437658003,1035.531135531136,818.3516483516484,799.0109890109891,1062.124542124542,1615.347985347985,-0.331482,0.092590,0.954956,7.760925,0.560760,4.321594,1,2,1,1,4,60.000000
2024-12-01 16:03:22.275,1.723612007328226,1.164321578016325,0.7544298840193508,1.801960351641988,1.611930239529342,0.7690436222793001,0.5279697661765963,1.405552176593678,1.54243401352775,0.8162532110391222,0.6846185032350113,1.390339260541668,1.189418586456477,0.3386796216451898,-0.1031532060186704,1.308313235343596,0.3929174616847788,-0.03418228209838733,-0.4806583562935405,0.6605463437658003,704.7252747252747,797.8021978021978,792.5641025641025,611.6483516483516,0,-0.266418,0.085632,0.909119,8.403931,-8.374023,-6.116028,1,2,1,1,2,60.000000
2024-12-01 16:03:22.333,,,,,,,,,,,,,,,,,,,,,,,,,,,,,,,,,,,,,,/muse/elements/blink
2024-12-01 16:03:22.522,,,,,,,,,,,,,,,,,,,,,,,,,,,,,,,,,,,,,,/muse/elements/blink
2024-12-01 16:03:22.775,1.723612007328226,1.206778104311439,0.7806919275667994,1.801960351641988,1.611930239529342,0.8001881094268604,0.4280662289605953,1.405552176593678,1.54243401352775,0.7588849048749012,0.666179590787599,1.390339260541668,1.189418586456477,0.2166953922417594,-0.09005957159229976,1.308313235343596,0.3929174616847788,-0.2771412495617497,-0.4330099610850598,0.6605463437658003,641.8681318681319,793.3699633699634,795.7875457875458,579.4139194139194,0,-0.259644,0.181580,0.884827,0.725250,-5.405731,-1.742096,1,2,1,1,2,60.000000
2024-12-01 16:03:22.967,,,,,,,,,,,,,,,,,,,,,,,,,,,,,,,,,,,,,,/muse/elements/blink
2024-12-01 16:03:23.268,,,,,,,,,,,,,,,,,,,,,,,,,,,,,,,,,,,,,,/muse/elements/blink
2024-12-01 16:03:23.281,1.723612007328226,1.202251523570906,0.7475422105919128,1.801960351641988,1.611930239529342,0.6909089738443642,0.3158948737683479,1.405552176593678,1.54243401352775,0.7316171852171642,0.583575757077288,1.390339260541668,1.189418586456477,0.1487508299024206,-0.150137059848538,1.308313235343596,0.3929174616847788,-0.3170853846367683,-0.3941265976342864,0.6605463437658003,982.3443223443223,816.7399267399268,805.4578754578755,1051.245421245421,1626.630036630037,-0.284485,0.062378,0.973877,6.145935,11.185303,-2.557068,1,2,1,1,2,60.000000
2024-12-01 16:03:23.736,,,,,,,,,,,,,,,,,,,,,,,,,,,,,,,,,,,,,,/muse/elements/blink
2024-12-01 16:03:23.775,1.723612007328226,1.213469304583212,0.7228213387699512,1.801960351641988,1.611930239529342,0.5841248785279786,0.1967445944775121,1.405552176593678,1.54243401352775,0.6761254114851019,0.3972625124505844,1.390339260541668,1.189418586456477,0.05920920635934252,-0.1414347303755518,1.308313235343596,0.3929174616847788,-0.2097288771032255,-0.4720212010142912,0.6605463437658003,732.1245421245421,784.9084249084249,784.1025641025641,583.040293040293,0,-0.243835,0.148804,1.147644,3.715973,-14.220886,-18.191071,1,2,1,1,2,60.000000
2024-12-01 16:03:24.259,,,,,,,,,,,,,,,,,,,,,,,,,,,,,,,,,,,,,,/muse/elements/blink
2024-12-01 16:03:24.275,1.723612007328226,1.262454759426885,0.788375855893757,1.801960351641988,1.611930239529342,0.7246179368665562,0.328865910169285,1.405552176593678,1.54243401352775,0.3884963380030553,0.4469776004613656,1.390339260541668,1.189418586456477,0.04456629257265227,-0.05281891289231889,1.308313235343596,0.3929174616847788,-0.1457641724782072,-0.5142428672049673,0.6605463437658003,1023.846153846154,809.0842490842491,793.3699633699634,995.6410256410256,0,-0.279968,0.154785,0.961853,10.475006,-0.433655,2.863617,1,2,1,1,2,60.000000
2024-12-01 16:03:24.782,1.723612007328226,1.220449799853274,0.9082121461230511,1.801960351641988,1.611930239529342,0.7600354883845931,0.3433902703024407,1.405552176593678,1.54243401352775,0.6204653145065517,0.4596626480014948,1.390339260541668,1.189418586456477,0.2074487388270723,0.005338306931180659,1.308313235343596,0.3929174616847788,0.06208836820826566,-0.4687421707144196,0.6605463437658003,757.5091575091575,806.2637362637363,780.8791208791209,801.8315018315019,1008.131868131868,-0.314697,0.081299,0.965881,0.284119,-1.480408,-4.164581,1,2,1,1,4,60.000000
2024-12-01 16:03:25.275,1.723612007328226,1.193074749410983,0.9387295752662843,1.801960351641988,1.611930239529342,0.779506233654107,0.4747726972729242,1.405552176593678,1.54243401352775,0.6235908699034542,0.4596626480014948,1.390339260541668,1.189418586456477,0.2564406504723107,0.09518196830417527,1.308313235343596,0.3929174616847788,0.1332873115504661,-0.3861554988602811,0.6605463437658003,756.3003663003664,807.4725274725275,806.2637362637363,878.7912087912089,922.7106227106227,-0.280579,0.091187,0.955627,3.416901,-1.300964,1.809387,1,2,1,1,2,60.000000
2024-12-01 16:03:25.362,,,,,,,,,,,,,,,,,,,,,,,,,,,,,,,,,,,,,,/muse/elements/blink
2024-12-01 16:03:25.775,1.723612007328226,1.036150045120277,0.9718178920943914,1.801960351641988,1.611930239529342,0.6212430613971502,0.4258894326864032,1.405552176593678,1.54243401352775,0.5449804803371378,0.351381791560071,1.390339260541668,1.189418586456477,0.2624969538914121,0.06187026339170995,1.308313235343596,0.3929174616847788,0.3453749027559191,-0.3378032143279431,0.6605463437658003,786.9230769230769,800.2197802197802,796.5934065934066,875.1648351648352,726.4835164835165,-0.275330,0.080505,0.962219,-0.635529,-0.014954,2.878571,1,2,1,1,4,60.000000
