TimeStamp,Delta_TP9,Delta_AF7,Delta_AF8,Delta_TP10,Theta_TP9,Theta_AF7,Theta_AF8,Theta_TP10,Alpha_TP9,Alpha_AF7,Alpha_AF8,Alpha_TP10,Beta_TP9,Beta_AF7,Beta_AF8,Beta_TP10,Gamma_TP9,Gamma_AF7,Gamma_AF8,Gamma_TP10,RAW_TP9,RAW_AF7,RAW_AF8,RAW_TP10,AUX_RIGHT,Accelerometer_X,Accelerometer_Y,Accelerometer_Z,Gyro_X,Gyro_Y,Gyro_Z,HeadBandOn,HSI_TP9,HSI_AF7,HSI_AF8,HSI_TP10,Battery,Elements
2024-10-09 17:42:38.748,,,,,,,,,,,,,,,,,,,,,,,,,,,,,,,,,,,,,,/muse/event/connected Muse-0782
2024-10-09 17:42:38.804,,,,,,,,,,,,,,,,,,,,,,,,,,,,,,,,,,,,,,/muse/elements/blink
2024-10-09 17:42:39.253,,,,,,,,,,,,,,,,,,,,,,,,,,,,,,,,,,,,,,/muse/elements/blink
2024-10-09 17:42:39.749,1.107195917309175,0.1471712744628098,-0.02396179915803894,1.741250639969141,0.9806874426646421,-0.0453293689418553,-0.1723410325857977,1.683468163158486,0.8383870798920922,-0.2654474392724983,0.1577038616150113,1.24602717266352,0.6839833296110431,0.2724528959933679,0.2674011977039333,0.6188864588606944,0.2500905914525777,-0.02980764826254222,-0.0908937309167821,0.1896052837985056,835.6776556776557,790.5494505494506,769.1941391941392,599.9633699633699,714.7985347985348,-0.320618,0.023132,0.941223,0.635529,-6.818848,1.360779,1,2,1,1,4,50.000000
2024-10-09 17:42:39.877,,,,,,,,,,,,,,,,,,,,,,,,,,,,,,,,,,,,,,/muse/elements/blink
2024-10-09 17:42:40.749,1.107195917309175,0.1471712744628098,-0.02396179915803894,1.741250639969141,0.9806874426646421,-0.0453293689418553,-0.1723410325857977,1.683468163158486,0.8383870798920922,-0.2654474392724983,0.1577038616150113,1.24602717266352,0.6839833296110431,0.2724528959933679,0.2674011977039333,0.6188864588606944,0.2500905914525777,-0.02980764826254222,-0.0908937309167821,0.1896052837985056,938.021978021978,824.3956043956044,811.0989010989011,1001.684981684982,1233.369963369963,-0.296326,0.040771,0.944458,-0.418701,-3.446808,-8.508606,1,2,1,1,4,50.000000
2024-10-09 17:42:40.826,,,,,,,,,,,,,,,,,,,,,,,,,,,,,,,,,,,,,,/muse/elements/blink
2024-10-09 17:42:41.084,,,,,,,,,,,,,,,,,,,,,,,,,,,,,,,,,,,,,,/muse/elements/blink
2024-10-09 17:42:41.277,,,,,,,,,,,,,,,,,,,,,,,,,,,,,,,,,,,,,,/muse/elements/blink
2024-10-09 17:42:41.760,1.107195917309175,0.1471712744628098,-0.02396179915803894,1.741250639969141,0.9806874426646421,-0.0453293689418553,-0.1723410325857977,1.683468163158486,0.8383870798920922,-0.2654474392724983,0.1577038616150113,1.24602717266352,0.6839833296110431,0.2724528959933679,0.2674011977039333,0.6188864588606944,0.2500905914525777,-0.02980764826254222,-0.0908937309167821,0.1896052837985056,777.6556776556777,811.0989010989011,818.7545787545788,611.6483516483516,410.5860805860806,-0.316101,0.043640,0.949585,-3.394470,-1.839294,1.682281,1,2,1,1,4,50.000000
2024-10-09 17:42:41.870,,,,,,,,,,,,,,,,,,,,,,,,,,,,,,,,,,,,,,/muse/elements/blink
2024-10-09 17:42:42.208,,,,,,,,,,,,,,,,,,,,,,,,,,,,,,,,,,,,,,/muse/elements/blink
2024-10-09 17:42:42.490,,,,,,,,,,,,,,,,,,,,,,,,,,,,,,,,,,,,,,/muse/elements/blink
2024-10-09 17:42:42.748,1.107195917309175,0.1471712744628098,-0.02396179915803894,1.741250639969141,0.9806874426646421,-0.0453293689418553,-0.1723410325857977,1.683468163158486,0.8383870798920922,-0.2654474392724983,0.1577038616150113,1.24602717266352,0.6839833296110431,0.2724528959933679,0.2674011977039333,0.6188864588606944,0.2500905914525777,-0.02980764826254222,-0.0908937309167821,0.1896052837985056,362.2344322344322,803.4432234432235,798.2051282051282,1620.586080586081,900.5494505494506,-0.309570,0.053345,0.945435,-3.200073,0.687866,-2.086029,1,2,1,1,4,50.000000
2024-10-09 17:42:43.022,,,,,,,,,,,,,,,,,,,,,,,,,,,,,,,,,,,,,,/muse/elements/blink
2024-10-09 17:42:43.234,,,,,,,,,,,,,,,,,,,,,,,,,,,,,,,,,,,,,,/muse/elements/blink
2024-10-09 17:42:43.518,,,,,,,,,,,,,,,,,,,,,,,,,,,,,,,,,,,,,,/muse/elements/blink
2024-10-09 17:42:43.757,1.107195917309175,0.1471712744628098,-0.02396179915803894,1.741250639969141,0.9806874426646421,-0.0453293689418553,-0.1723410325857977,1.683468163158486,0.8383870798920922,-0.2654474392724983,0.1577038616150113,1.24602717266352,0.6839833296110431,0.2724528959933679,0.2674011977039333,0.6188864588606944,0.2500905914525777,-0.02980764826254222,-0.0908937309167821,0.1896052837985056,347.3260073260074,811.5018315018315,796.1904761904763,518.974358974359,197.4358974358974,-0.285278,0.073425,0.966431,0.807495,-5.630035,5.241241,1,4,1,1,4,50.000000
2024-10-09 17:42:43.935,,,,,,,,,,,,,,,,,,,,,,,,,,,,,,,,,,,,,,/muse/elements/blink
2024-10-09 17:42:44.129,,,,,,,,,,,,,,,,,,,,,,,,,,,,,,,,,,,,,,/muse/elements/blink
2024-10-09 17:42:44.566,,,,,,,,,,,,,,,,,,,,,,,,,,,,,,,,,,,,,,/muse/elements/blink
2024-10-09 17:42:44.749,1.107195917309175,0.1471712744628098,-0.02396179915803894,1.741250639969141,0.9806874426646421,-0.0453293689418553,-0.1723410325857977,1.683468163158486,0.8383870798920922,-0.2654474392724983,0.1577038616150113,1.24602717266352,0.6839833296110431,0.2724528959933679,0.2674011977039333,0.6188864588606944,0.2500905914525777,-0.02980764826254222,-0.0908937309167821,0.1896052837985056,446.4468864468865,787.7289377289378,805.4578754578755,1346.593406593407,1480.3663003663,-0.416748,-0.042603,0.917480,-4.299164,9.129181,-9.301147,1,4,1,1,4,50.000000
2024-10-09 17:42:44.857,,,,,,,,,,,,,,,,,,,,,,,,,,,,,,,,,,,,,,/muse/elements/blink
2024-10-09 17:42:45.170,,,,,,,,,,,,,,,,,,,,,,,,,,,,,,,,,,,,,,/muse/elements/blink
2024-10-09 17:42:45.363,,,,,,,,,,,,,,,,,,,,,,,,,,,,,,,,,,,,,,/muse/elements/blink
2024-10-09 17:42:45.675,,,,,,,,,,,,,,,,,,,,,,,,,,,,,,,,,,,,,,/muse/elements/blink
2024-10-09 17:42:45.756,1.107195917309175,0.1471712744628098,-0.02396179915803894,1.741250639969141,0.9806874426646421,-0.0453293689418553,-0.1723410325857977,1.683468163158486,0.8383870798920922,-0.2654474392724983,0.1577038616150113,1.24602717266352,0.6839833296110431,0.2724528959933679,0.2674011977039333,0.6188864588606944,0.2500905914525777,-0.02980764826254222,-0.0908937309167821,0.1896052837985056,1156.007326007326,792.1611721611722,806.6666666666667,1624.615384615385,1230.549450549451,-0.322144,-0.040588,0.965637,3.596344,0.067291,1.652374,1,4,1,1,4,50.000000
2024-10-09 17:42:45.962,,,,,,,,,,,,,,,,,,,,,,,,,,,,,,,,,,,,,,/muse/elements/blink
2024-10-09 17:42:46.749,1.107195917309175,0.1471712744628098,-0.02396179915803894,1.741250639969141,0.9806874426646421,-0.0453293689418553,-0.1723410325857977,1.683468163158486,0.8383870798920922,-0.2654474392724983,0.1577038616150113,1.24602717266352,0.6839833296110431,0.2724528959933679,0.2674011977039333,0.6188864588606944,0.2500905914525777,-0.02980764826254222,-0.0908937309167821,0.1896052837985056,269.5604395604396,787.7289377289378,822.7838827838829,0,0,-0.320007,0.053955,0.799072,1.951447,6.489868,-5.630035,1,4,1,1,4,50.000000
2024-10-09 17:42:46.990,,,,,,,,,,,,,,,,,,,,,,,,,,,,,,,,,,,,,,/muse/elements/blink
2024-10-09 17:42:47.377,,,,,,,,,,,,,,,,,,,,,,,,,,,,,,,,,,,,,,/muse/elements/blink
2024-10-09 17:42:47.749,1.107195917309175,0.6886943839826434,0.4721372129024796,1.741250639969141,0.9806874426646421,-0.1348030503971664,0.1810047938952374,1.683468163158486,0.8383870798920922,0.3029368987056834,0.4232588738552457,1.24602717266352,0.6839833296110431,0.3551859825788922,0.09245286112828917,0.6188864588606944,0.2500905914525777,0.254832514259299,-0.3079330144266687,0.1896052837985056,737.7655677655678,811.9047619047619,813.919413919414,341.2820512820513,47.54578754578755,-0.217529,0.040344,0.793762,-3.850555,-5.540314,0.568237,1,4,1,1,4,50.000000
2024-10-09 17:42:47.974,,,,,,,,,,,,,,,,,,,,,,,,,,,,,,,,,,,,,,/muse/elements/blink
2024-10-09 17:42:48.597,,,,,,,,,,,,,,,,,,,,,,,,,,,,,,,,,,,,,,/muse/elements/blink
2024-10-09 17:42:48.749,1.107195917309175,0.8375823000417298,0.4720133292970242,1.741250639969141,0.9806874426646421,-0.002976956534073863,0.186637669168932,1.683468163158486,0.8383870798920922,0.2693802325367244,0.3571766899926105,1.24602717266352,0.6839833296110431,0.3588803463780307,0.1180600014173335,0.6188864588606944,0.2500905914525777,0.3192824359924708,-0.2658024654383469,0.1896052837985056,1355.860805860806,750.6593406593407,838.4981684981685,1624.212454212454,1623.809523809524,-0.388062,0.012329,1.172546,-3.828125,-3.723450,-16.045227,1,4,1,1,4,50.000000
2024-10-09 17:42:48.831,,,,,,,,,,,,,,,,,,,,,,,,,,,,,,,,,,,,,,/muse/elements/blink
2024-10-09 17:42:49.020,,,,,,,,,,,,,,,,,,,,,,,,,,,,,,,,,,,,,,/muse/elements/blink
2024-10-09 17:42:49.749,1.107195917309175,0.7841167485075448,0.4720133292970242,1.741250639969141,0.9806874426646421,0.7497435441358301,0.186637669168932,1.683468163158486,0.8383870798920922,0.689273703672727,0.3571766899926105,1.24602717266352,0.6839833296110431,0.6176487731388993,0.1180600014173335,0.6188864588606944,0.2500905914525777,0.2464969726417183,-0.2658024654383469,0.1896052837985056,802.2344322344322,804.2490842490843,801.025641025641,1082.673992673993,969.047619047619,-0.431885,-0.001831,1.009277,-2.235565,-2.639313,-5.428162,1,4,1,1,4,50.000000
2024-10-09 17:42:50.120,,,,,,,,,,,,,,,,,,,,,,,,,,,,,,,,,,,,,,/muse/elements/blink
2024-10-09 17:42:50.748,1.107195917309175,1.004923171339155,0.4720133292970242,1.741250639969141,0.9806874426646421,0.6103439047678417,0.186637669168932,1.683468163158486,0.8383870798920922,0.6849040751842107,0.3571766899926105,1.24602717266352,0.6839833296110431,0.6635396124224279,0.1180600014173335,0.6188864588606944,0.2500905914525777,0.7947740394187528,-0.2658024654383469,0.1896052837985056,491.1721611721612,812.3076923076924,787.3260073260074,0,0,-0.237793,0.034729,0.708923,5.682373,9.360962,8.224487,1,4,1,1,4,50.000000
2024-10-09 17:42:50.843,,,,,,,,,,,,,,,,,,,,,,,,,,,,,,,,,,,,,,/muse/elements/blink
2024-10-09 17:42:51.436,,,,,,,,,,,,,,,,,,,,,,,,,,,,,,,,,,,,,,/muse/elements/blink
2024-10-09 17:42:51.749,1.107195917309175,1.004923171339155,0.4720133292970242,1.741250639969141,0.9806874426646421,0.6103439047678417,0.186637669168932,1.683468163158486,0.8383870798920922,0.6849040751842107,0.3571766899926105,1.24602717266352,0.6839833296110431,0.6635396124224279,0.1180600014173335,0.6188864588606944,0.2500905914525777,0.7947740394187528,-0.2658024654383469,0.1896052837985056,1049.6336996337,818.3516483516484,812.7106227106227,290.5128205128205,7.252747252747253,-0.302673,-0.025757,0.787354,5.831909,-5.734711,-1.958923,1,4,1,1,4,50.000000
2024-10-09 17:42:51.958,,,,,,,,,,,,,,,,,,,,,,,,,,,,,,,,,,,,,,/muse/elements/blink
2024-10-09 17:42:52.470,,,,,,,,,,,,,,,,,,,,,,,,,,,,,,,,,,,,,,/muse/elements/blink
2024-10-09 17:42:52.749,1.107195917309175,1.004923171339155,0.4720133292970242,1.741250639969141,0.9806874426646421,0.6103439047678417,0.186637669168932,1.683468163158486,0.8383870798920922,0.6849040751842107,0.3571766899926105,1.24602717266352,0.6839833296110431,0.6635396124224279,0.1180600014173335,0.6188864588606944,0.2500905914525777,0.7947740394187528,-0.2658024654383469,0.1896052837985056,937.6190476190476,833.6630036630037,839.7069597069598,1624.212454212454,1624.212454212454,-0.284973,-0.068542,1.007751,-2.564545,-6.953430,-18.228455,1,4,1,1,4,50.000000
2024-10-09 17:42:53.083,,,,,,,,,,,,,,,,,,,,,,,,,,,,,,,,,,,,,,/muse/elements/blink
2024-10-09 17:42:53.457,,,,,,,,,,,,,,,,,,,,,,,,,,,,,,,,,,,,,,/muse/elements/blink
2024-10-09 17:42:53.749,1.107195917309175,1.211578485153505,1.181347907661962,1.741250639969141,0.9806874426646421,1.030256015805664,1.001143233984416,1.683468163158486,0.8383870798920922,1.199685370677044,0.6008231306687808,1.24602717266352,0.6839833296110431,0.5795310929578751,0.4139499341974667,0.6188864588606944,0.2500905914525777,0.2895502742746507,-0.2019809232915902,0.1896052837985056,1361.098901098901,789.7435897435897,778.0586080586081,0,0,-0.387390,0.063354,0.691528,11.013336,-9.719849,16.710663,1,4,1,1,4,50.000000
2024-10-09 17:42:53.987,,,,,,,,,,,,,,,,,,,,,,,,,,,,,,,,,,,,,,/muse/elements/blink
2024-10-09 17:42:54.201,,,,,,,,,,,,,,,,,,,,,,,,,,,,,,,,,,,,,,/muse/elements/blink
2024-10-09 17:42:54.503,,,,,,,,,,,,,,,,,,,,,,,,,,,,,,,,,,,,,,/muse/elements/blink
2024-10-09 17:42:54.670,,,,,,,,,,,,,,,,,,,,,,,,,,,,,,,,,,,,,,/muse/elements/blink
2024-10-09 17:42:54.749,1.107195917309175,0.7800289056900874,0.825330097040858,1.741250639969141,0.9806874426646421,0.7305482487400302,0.3436793312465848,1.683468163158486,0.8383870798920922,1.077745430831767,0.4045515917571688,1.24602717266352,0.6839833296110431,0.5239730985417939,0.3586735438129977,0.6188864588606944,0.2500905914525777,0.3038029172293345,0.07245085237784711,0.1896052837985056,727.2893772893773,786.1172161172161,795.3846153846154,303.003663003663,65.67765567765568,-0.379333,0.085144,0.968811,-0.755157,-5.562744,9.652557,1,4,1,1,4,50.000000
2024-10-09 17:42:55.749,1.107195917309175,0.4917984981561625,0.8475199502800622,1.741250639969141,0.9806874426646421,0.2954124936743472,0.2576915650109818,1.683468163158486,0.8383870798920922,0.8207675417934586,0.3907239013361881,1.24602717266352,0.6839833296110431,0.5236870311304908,0.3636997350612722,0.6188864588606944,0.2500905914525777,0.1159969233202707,0.06550383624329745,0.1896052837985056,0.8058608058608059,790.952380952381,794.981684981685,0,0,-0.337341,0.063660,0.754578,-3.970184,7.282410,-0.194397,1,4,1,1,4,50.000000
2024-10-09 17:42:55.789,,,,,,,,,,,,,,,,,,,,,,,,,,,,,,,,,,,,,,/muse/elements/blink
2024-10-09 17:42:56.322,,,,,,,,,,,,,,,,,,,,,,,,,,,,,,,,,,,,,,/muse/elements/blink
2024-10-09 17:42:56.752,1.107195917309175,0.4917984981561625,0.8475199502800622,1.741250639969141,0.9806874426646421,0.2954124936743472,0.2576915650109818,1.683468163158486,0.8383870798920922,0.8207675417934586,0.3907239013361881,1.24602717266352,0.6839833296110431,0.5236870311304908,0.3636997350612722,0.6188864588606944,0.2500905914525777,0.1159969233202707,0.06550383624329745,0.1896052837985056,0,819.96336996337,813.1135531135532,0,0,-0.270447,0.063171,0.686951,-10.116119,2.153320,0.418701,1,4,1,1,4,50.000000
2024-10-09 17:42:56.931,,,,,,,,,,,,,,,,,,,,,,,,,,,,,,,,,,,,,,/muse/elements/blink
2024-10-09 17:42:57.443,,,,,,,,,,,,,,,,,,,,,,,,,,,,,,,,,,,,,,/muse/elements/blink
2024-10-09 17:42:57.749,1.107195917309175,0.3391721379056539,0.594359292660375,1.741250639969141,0.9806874426646421,-0.01754247296443857,0.1477236114708071,1.683468163158486,0.8383870798920922,-0.06382725052350074,0.2739500851831899,1.24602717266352,0.6839833296110431,0.6131432786990892,0.2971610484877558,0.6188864588606944,0.2500905914525777,0.3964738583104819,-0.2004156973702283,0.1896052837985056,1279.70695970696,799.0109890109891,808.6813186813187,1616.556776556777,1619.377289377289,-0.320068,0.086365,1.121033,7.865601,-7.439423,-1.315918,1,4,1,1,4,50.000000
2024-10-09 17:42:58.059,,,,,,,,,,,,,,,,,,,,,,,,,,,,,,,,,,,,,,/muse/elements/blink
2024-10-09 17:42:58.580,,,,,,,,,,,,,,,,,,,,,,,,,,,,,,,,,,,,,,/muse/elements/blink
2024-10-09 17:42:58.758,1.107195917309175,0.9795243589625703,0.6528714644871856,1.741250639969141,0.9806874426646421,0.5206955119768584,0.1450455795331359,1.683468163158486,0.8383870798920922,0.2484932088469098,0.2877534404369955,1.24602717266352,0.6839833296110431,0.4575383442275427,0.275579458458083,0.6188864588606944,0.2500905914525777,0.2257748147921139,-0.2595036552453829,0.1896052837985056,1623.809523809524,809.8901098901099,808.6813186813187,1624.212454212454,1623.809523809524,-0.301147,0.108643,1.098511,4.897308,3.970184,-5.196381,1,4,1,1,4,50.000000
2024-10-09 17:42:59.073,,,,,,,,,,,,,,,,,,,,,,,,,,,,,,,,,,,,,,/muse/elements/blink
2024-10-09 17:42:59.540,,,,,,,,,,,,,,,,,,,,,,,,,,,,,,,,,,,,,,/muse/elements/blink
2024-10-09 17:42:59.756,1.107195917309175,1.227767185307776,0.691172096380221,1.741250639969141,0.9806874426646421,0.7537993868023196,0.1429627363663873,1.683468163158486,0.8383870798920922,0.2391880626030292,0.1302824997318935,1.24602717266352,0.6839833296110431,0.2127378649462453,0.2705922702882993,0.6188864588606944,0.2500905914525777,-0.05946896050182433,-0.3491079721426715,0.1896052837985056,1625.018315018315,780.8791208791209,781.6849816849817,1624.212454212454,1623.809523809524,-0.445862,0.029602,1.178955,-10.624542,1.876678,-16.097565,1,4,1,1,4,50.000000
2024-10-09 17:43:00.166,,,,,,,,,,,,,,,,,,,,,,,,,,,,,,,,,,,,,,/muse/elements/blink
2024-10-09 17:43:00.682,,,,,,,,,,,,,,,,,,,,,,,,,,,,,,,,,,,,,,/muse/elements/blink
2024-10-09 17:43:00.749,1.107195917309175,1.227767185307776,0.9214277236934714,1.741250639969141,0.9806874426646421,0.7537993868023196,0.8380750566603073,1.683468163158486,0.8383870798920922,0.2391880626030292,0.7222802743496128,1.24602717266352,0.6839833296110431,0.2127378649462453,0.3552137058005849,0.6188864588606944,0.2500905914525777,-0.05946896050182433,0.2239121367136734,0.1896052837985056,736.5567765567765,806.2637362637363,813.5164835164835,1624.212454212454,1623.809523809524,-0.388855,0.025208,0.970764,-1.031799,-11.521759,-3.880463,1,4,1,1,4,50.000000
2024-10-09 17:43:01.196,,,,,,,,,,,,,,,,,,,,,,,,,,,,,,,,,,,,,,/muse/elements/blink
2024-10-09 17:43:01.735,,,,,,,,,,,,,,,,,,,,,,,,,,,,,,,,,,,,,,/muse/elements/blink
2024-10-09 17:43:01.751,1.107195917309175,1.032300997314907,0.8962618411772244,1.741250639969141,0.9806874426646421,0.9203931170519892,0.9085718201016433,1.683468163158486,0.8383870798920922,0.9039985819162613,0.8582777920319415,1.24602717266352,0.6839833296110431,0.6301823582121534,0.5694290607637783,0.6188864588606944,0.2500905914525777,0.1852192019070164,0.1344219280453764,0.1896052837985056,271.5750915750916,796.1904761904763,806.2637362637363,646.7032967032967,666.0439560439561,-0.385254,0.038452,0.930359,-3.431854,-9.316101,8.957214,1,4,1,1,4,50.000000
2024-10-09 17:43:02.323,,,,,,,,,,,,,,,,,,,,,,,,,,,,,,,,,,,,,,/muse/elements/blink
2024-10-09 17:43:02.762,1.107195917309175,0.8922617507074595,1.167629779113449,1.741250639969141,0.9806874426646421,0.9564526401456735,0.9098194196127622,1.683468163158486,0.8383870798920922,1.148180346508735,1.125007542176898,1.24602717266352,0.6839833296110431,0.7009586042105311,0.6347933138271119,0.6188864588606944,0.2500905914525777,0.2231093993802173,0.01629646921888778,0.1896052837985056,0,794.981684981685,817.948717948718,0,0,-0.304260,0.026611,0.686279,-1.443024,15.192871,-1.338348,1,4,1,1,4,50.000000
2024-10-09 17:43:02.842,,,,,,,,,,,,,,,,,,,,,,,,,,,,,,,,,,,,,,/muse/elements/blink
2024-10-09 17:43:03.360,,,,,,,,,,,,,,,,,,,,,,,,,,,,,,,,,,,,,,/muse/elements/blink
2024-10-09 17:43:03.749,1.107195917309175,0.9631831770956535,1.206953591275825,1.741250639969141,0.9806874426646421,0.4278076750861027,0.6680395700926277,1.683468163158486,0.8383870798920922,0.9983292414382527,1.123939101246475,1.24602717266352,0.6839833296110431,0.4778863471751579,0.5139356195856959,0.6188864588606944,0.2500905914525777,0.090542647487976,-0.2222579803741927,0.1896052837985056,0,814.3223443223443,815.1282051282052,0,0,-0.231201,0.002075,0.684937,14.460144,-3.147736,-5.996399,1,4,1,1,4,50.000000
2024-10-09 17:43:03.948,,,,,,,,,,,,,,,,,,,,,,,,,,,,,,,,,,,,,,/muse/elements/blink
2024-10-09 17:43:04.443,,,,,,,,,,,,,,,,,,,,,,,,,,,,,,,,,,,,,,/muse/elements/blink
2024-10-09 17:43:04.755,1.107195917309175,1.078925045695198,1.216727114729609,1.741250639969141,0.9806874426646421,0.6121082860773732,0.6412840908142784,1.683468163158486,0.8383870798920922,0.6570425781406367,1.123939101246475,1.24602717266352,0.6839833296110431,0.4615487324097761,0.5161026200150333,0.6188864588606944,0.2500905914525777,0.2229589685002725,-0.2317893531183963,0.1896052837985056,40.29304029304029,757.9120879120879,821.5750915750916,0,0,-0.379028,-0.061035,0.927734,3.342133,3.813171,-7.259979,1,4,1,1,4,50.000000
2024-10-09 17:43:04.935,,,,,,,,,,,,,,,,,,,,,,,,,,,,,,,,,,,,,,/muse/elements/blink
2024-10-09 17:43:05.749,1.107195917309175,1.129683489204284,1.433933341412369,1.741250639969141,0.9806874426646421,1.332016679420124,0.902187441404305,1.683468163158486,0.8383870798920922,1.466844218874106,0.7055685875434873,1.24602717266352,0.6839833296110431,0.548937396843045,0.2438637556374814,0.6188864588606944,0.2500905914525777,0.1949414034022715,-0.1028524880875389,0.1896052837985056,1623.809523809524,784.9084249084249,795.3846153846154,1624.212454212454,1624.212454212454,-0.476379,-0.024658,1.109131,-11.103058,-10.938568,-3.618774,1,4,1,1,4,50.000000
2024-10-09 17:43:06.073,,,,,,,,,,,,,,,,,,,,,,,,,,,,,,,,,,,,,,/muse/elements/blink
2024-10-09 17:43:06.677,,,,,,,,,,,,,,,,,,,,,,,,,,,,,,,,,,,,,,/muse/elements/blink
2024-10-09 17:43:06.748,1.107195917309175,1.210741196079614,1.433933341412369,1.741250639969141,0.9806874426646421,1.679282591225998,0.902187441404305,1.683468163158486,0.8383870798920922,1.466844218874106,0.7055685875434873,1.24602717266352,0.6839833296110431,0.6270855286857856,0.2438637556374814,0.6188864588606944,0.2500905914525777,0.1275987388417355,-0.1028524880875389,0.1896052837985056,1309.52380952381,816.3369963369963,791.7582417582418,1624.212454212454,1624.212454212454,-0.464172,0.066162,1.271362,0.628052,-2.930908,17.884521,1,4,1,1,4,50.000000
2024-10-09 17:43:07.093,,,,,,,,,,,,,,,,,,,,,,,,,,,,,,,,,,,,,,/muse/elements/blink
2024-10-09 17:43:07.700,,,,,,,,,,,,,,,,,,,,,,,,,,,,,,,,,,,,,,/muse/elements/blink
2024-10-09 17:43:07.758,1.107195917309175,1.210741196079614,1.433933341412369,1.741250639969141,0.9806874426646421,1.679282591225998,0.902187441404305,1.683468163158486,0.8383870798920922,1.466844218874106,0.7055685875434873,1.24602717266352,0.6839833296110431,0.6270855286857856,0.2438637556374814,0.6188864588606944,0.2500905914525777,0.1275987388417355,-0.1028524880875389,0.1896052837985056,929.1575091575091,790.952380952381,824.7985347985348,1624.212454212454,1624.212454212454,-0.365295,0.071289,0.983521,2.385101,1.786957,6.759033,1,4,1,1,4,50.000000
2024-10-09 17:43:08.230,,,,,,,,,,,,,,,,,,,,,,,,,,,,,,,,,,,,,,/muse/elements/blink
2024-10-09 17:43:08.749,1.107195917309175,1.210741196079614,0.8276056575236088,1.741250639969141,0.9806874426646421,1.679282591225998,0.849258471325732,1.683468163158486,0.8383870798920922,1.466844218874106,0.9636443253882289,1.24602717266352,0.6839833296110431,0.6270855286857856,0.4451109546936027,0.6188864588606944,0.2500905914525777,0.1275987388417355,0.0859906004014189,0.1896052837985056,0,793.3699633699634,801.4285714285714,0,0,-0.303589,0.049927,0.657898,-4.658051,-1.839294,-8.463745,1,4,1,1,4,50.000000
2024-10-09 17:43:08.916,,,,,,,,,,,,,,,,,,,,,,,,,,,,,,,,,,,,,,/muse/elements/blink
2024-10-09 17:43:09.310,,,,,,,,,,,,,,,,,,,,,,,,,,,,,,,,,,,,,,/muse/elements/blink
2024-10-09 17:43:09.749,1.107195917309175,1.210741196079614,0.6585026980996217,1.741250639969141,0.9806874426646421,1.679282591225998,0.3548885288581728,1.683468163158486,0.8383870798920922,1.466844218874106,0.4960105860535485,1.24602717266352,0.6839833296110431,0.6270855286857856,0.522590355651155,0.6188864588606944,0.2500905914525777,0.1275987388417355,0.3049918143574942,0.1896052837985056,0,759.5238095238095,807.0695970695971,0,8.058608058608058,-0.274170,0.043945,0.669128,-7.753448,-16.516266,-0.568237,1,4,1,1,4,50.000000
2024-10-09 17:43:10.523,,,,,,,,,,,,,,,,,,,,,,,,,,,,,,,,,,,,,,/muse/elements/blink
2024-10-09 17:43:10.754,1.107195917309175,1.210741196079614,0.7079466108060434,1.741250639969141,0.9806874426646421,1.679282591225998,0.1347907485896016,1.683468163158486,0.8383870798920922,1.466844218874106,0.226560642452044,1.24602717266352,0.6839833296110431,0.6270855286857856,0.5252971668759094,0.6188864588606944,0.2500905914525777,0.1275987388417355,0.3273312227229078,0.1896052837985056,105.5677655677656,803.8461538461539,805.0549450549451,0,0,-0.297668,0.085754,0.817322,-10.744171,0.052338,0.194397,1,4,1,1,4,50.000000
2024-10-09 17:43:10.938,,,,,,,,,,,,,,,,,,,,,,,,,,,,,,,,,,,,,,/muse/elements/blink
2024-10-09 17:43:11.470,,,,,,,,,,,,,,,,,,,,,,,,,,,,,,,,,,,,,,/muse/elements/blink
2024-10-09 17:43:11.749,1.107195917309175,0.7125999299281796,1.111132175567001,1.741250639969141,0.9806874426646421,0.8905061659299219,1.033009645814575,1.683468163158486,0.8383870798920922,1.090750621994543,0.825233952671343,1.24602717266352,0.6839833296110431,0.5008355905439691,0.8309205049516163,0.6188864588606944,0.2500905914525777,0.4369047413349728,0.6600570307597212,0.1896052837985056,1623.809523809524,797.8021978021978,787.3260073260074,1624.212454212454,1623.809523809524,-0.397278,0.134216,1.062012,16.807861,-1.136475,-3.244934,1,4,1,1,4,50.000000
2024-10-09 17:43:12.153,,,,,,,,,,,,,,,,,,,,,,,,,,,,,,,,,,,,,,/muse/elements/blink
2024-10-09 17:43:12.577,,,,,,,,,,,,,,,,,,,,,,,,,,,,,,,,,,,,,,/muse/elements/blink
2024-10-09 17:43:12.749,1.107195917309175,0.9904819762281699,0.9237017107697355,1.741250639969141,0.9806874426646421,0.9470354475784792,0.8276129166301209,1.683468163158486,0.8383870798920922,1.12002611953288,0.8210872100637683,1.24602717266352,0.6839833296110431,0.6168506664804549,0.7424834388607837,0.6188864588606944,0.2500905914525777,0.3666529442895231,0.4272630910230356,0.1896052837985056,1623.809523809524,881.2087912087912,875.5677655677656,1102.820512820513,1304.285714285714,-0.373718,0.034546,0.974731,-9.607697,2.729034,-6.093597,1,4,1,1,4,50.000000
2024-10-09 17:43:13.111,,,,,,,,,,,,,,,,,,,,,,,,,,,,,,,,,,,,,,/muse/elements/blink
2024-10-09 17:43:13.559,,,,,,,,,,,,,,,,,,,,,,,,,,,,,,,,,,,,,,/muse/elements/blink
2024-10-09 17:43:13.754,1.107195917309175,1.098961603490494,0.4150684566610915,1.741250639969141,0.9806874426646421,0.9048563030261316,0.1815815792739023,1.683468163158486,0.8383870798920922,0.5701111460002194,0.4281807453830222,1.24602717266352,0.6839833296110431,0.662545171228378,0.6608092087862996,0.6188864588606944,0.2500905914525777,0.2646772487315789,0.1255721550882875,0.1896052837985056,1386.886446886447,821.5750915750916,832.4542124542124,1623.406593406593,1614.542124542125,-0.501465,0.016663,1.221436,-14.026489,-11.992798,-11.432037,1,4,1,1,4,50.000000
2024-10-09 17:43:14.194,,,,,,,,,,,,,,,,,,,,,,,,,,,,,,,,,,,,,,/muse/elements/blink
2024-10-09 17:43:14.686,,,,,,,,,,,,,,,,,,,,,,,,,,,,,,,,,,,,,,/muse/elements/blink
2024-10-09 17:43:14.749,1.107195917309175,1.010738234865165,1.334684003016702,1.741250639969141,0.9806874426646421,0.8479159360559351,0.6101207031062558,1.683468163158486,0.8383870798920922,0.5111027284728766,0.4633494912272095,1.24602717266352,0.6839833296110431,0.670897268353062,0.1326272889476399,0.6188864588606944,0.2500905914525777,0.2268061640830758,-0.1538644782422844,0.1896052837985056,1093.150183150183,799.8168498168499,724.4688644688645,1619.377289377289,1498.095238095238,-0.471069,-0.039612,1.000854,3.551483,-15.020905,0.044861,1,4,1,1,4,50.000000
2024-10-09 17:43:15.202,,,,,,,,,,,,,,,,,,,,,,,,,,,,,,,,,,,,,,/muse/elements/blink
2024-10-09 17:43:15.390,,,,,,,,,,,,,,,,,,,,,,,,,,,,,,,,,,,,,,/muse/elements/blink
2024-10-09 17:43:15.712,,,,,,,,,,,,,,,,,,,,,,,,,,,,,,,,,,,,,,/muse/elements/blink
2024-10-09 17:43:15.749,1.107195917309175,1.010738234865165,1.334684003016702,1.741250639969141,0.9806874426646421,0.8479159360559351,0.6101207031062558,1.683468163158486,0.8383870798920922,0.5111027284728766,0.4633494912272095,1.24602717266352,0.6839833296110431,0.670897268353062,0.1326272889476399,0.6188864588606944,0.2500905914525777,0.2268061640830758,-0.1538644782422844,0.1896052837985056,0,802.2344322344322,807.8754578754579,0,0,-0.314514,0.006226,0.730347,5.742188,6.654358,3.364563,1,4,1,1,4,50.000000
2024-10-09 17:43:16.339,,,,,,,,,,,,,,,,,,,,,,,,,,,,,,,,,,,,,,/muse/elements/blink
2024-10-09 17:43:16.749,1.107195917309175,0.7652369833214877,0.7990892638857382,1.741250639969141,0.9806874426646421,0.8050992813430673,0.4733483469440511,1.683468163158486,0.8383870798920922,0.7847516971475764,0.4048034565476192,1.24602717266352,0.6839833296110431,0.4947682918018453,0.3054831652792313,0.6188864588606944,0.2500905914525777,0.461500225377149,-0.1352076267237612,0.1896052837985056,286.4835164835165,800.6227106227107,805.0549450549451,0,8.058608058608058,-0.261047,-0.014282,0.760071,10.983429,-9.517975,-0.568237,1,4,1,1,4,50.000000
2024-10-09 17:43:16.832,,,,,,,,,,,,,,,,,,,,,,,,,,,,,,,,,,,,,,/muse/elements/blink
2024-10-09 17:43:17.464,,,,,,,,,,,,,,,,,,,,,,,,,,,,,,,,,,,,,,/muse/elements/blink
2024-10-09 17:43:17.763,1.107195917309175,0.6995502505205036,0.7657223653244206,1.741250639969141,0.9806874426646421,0.4625788486045778,0.4235743802929007,1.683468163158486,0.8383870798920922,0.5617227791040286,0.5474775497298476,1.24602717266352,0.6839833296110431,0.5240722232808875,0.2695171943813324,0.6188864588606944,0.2500905914525777,0.7162223630886722,-0.1045788568615311,0.1896052837985056,706.3369963369963,797.3992673992674,811.9047619047619,0,0,-0.394226,-0.079041,0.979187,-8.291779,16.845245,-12.703094,1,4,1,1,4,50.000000
2024-10-09 17:43:17.958,,,,,,,,,,,,,,,,,,,,,,,,,,,,,,,,,,,,,,/muse/elements/blink
2024-10-09 17:43:18.592,,,,,,,,,,,,,,,,,,,,,,,,,,,,,,,,,,,,,,/muse/elements/blink
2024-10-09 17:43:18.749,1.107195917309175,0.7501444125687169,0.641651516492234,1.741250639969141,0.9806874426646421,-0.04612010838448023,0.4788453710844253,1.683468163158486,0.8383870798920922,0.2267800901242505,0.5595935282084966,1.24602717266352,0.6839833296110431,0.4547719673439845,0.2256471936267005,0.6188864588606944,0.2500905914525777,0.7627561509652755,0.07743540459080954,0.1896052837985056,661.2087912087912,826.4102564102565,796.1904761904763,921.0989010989011,672.893772893773,-0.337646,0.026367,0.815674,2.736511,-11.888123,-18.243408,1,4,1,1,4,50.000000
2024-10-09 17:43:19.201,,,,,,,,,,,,,,,,,,,,,,,,,,,,,,,,,,,,,,/muse/elements/blink
2024-10-09 17:43:19.575,,,,,,,,,,,,,,,,,,,,,,,,,,,,,,,,,,,,,,/muse/elements/blink
2024-10-09 17:43:19.749,1.107195917309175,0.7501444125687169,0.518536080027352,1.741250639969141,0.9806874426646421,-0.04612010838448023,0.2266741964737178,1.683468163158486,0.8383870798920922,0.2267800901242505,0.4824904366195061,1.24602717266352,0.6839833296110431,0.4547719673439845,0.2428778740003707,0.6188864588606944,0.2500905914525777,0.7627561509652755,0.1891758682932591,0.1896052837985056,906.1904761904763,797.3992673992674,839.7069597069598,1622.600732600733,1625.421245421245,-0.469604,0.073364,0.810486,13.166656,4.560852,-66.835175,1,4,1,1,4,50.000000
2024-10-09 17:43:19.881,,,,,,,,,,,,,,,,,,,,,,,,,,,,,,,,,,,,,,/muse/elements/blink
2024-10-09 17:43:20.255,,,,,,,,,,,,,,,,,,,,,,,,,,,,,,,,,,,,,,/muse/elements/blink
2024-10-09 17:43:20.755,1.107195917309175,0.7501444125687169,0.518536080027352,1.741250639969141,0.9806874426646421,-0.04612010838448023,0.2266741964737178,1.683468163158486,0.8383870798920922,0.2267800901242505,0.4824904366195061,1.24602717266352,0.6839833296110431,0.4547719673439845,0.2428778740003707,0.6188864588606944,0.2500905914525777,0.7627561509652755,0.1891758682932591,0.1896052837985056,1019.413919413919,817.948717948718,788.9377289377289,334.0293040293041,0,-0.228455,0.059326,1.063904,7.745972,-9.144135,-60.846252,1,4,1,1,4,50.000000
2024-10-09 17:43:20.884,,,,,,,,,,,,,,,,,,,,,,,,,,,,,,,,,,,,,,/muse/elements/blink
2024-10-09 17:43:21.613,,,,,,,,,,,,,,,,,,,,,,,,,,,,,,,,,,,,,,/muse/elements/blink
2024-10-09 17:43:21.749,1.107195917309175,0.7501444125687169,1.047288258393493,1.741250639969141,0.9806874426646421,-0.04612010838448023,0.8318979466325058,1.683468163158486,0.8383870798920922,0.2267800901242505,0.5889783781872721,1.24602717266352,0.6839833296110431,0.4547719673439845,0.6088573083983362,0.6188864588606944,0.2500905914525777,0.7627561509652755,0.5629023517045433,0.1896052837985056,935.2014652014652,837.2893772893773,813.919413919414,1624.615384615385,1624.212454212454,-0.314636,-0.147583,1.137207,-4.994507,3.319702,-38.670044,1,2,1,1,2,50.000000
2024-10-09 17:43:22.010,,,,,,,,,,,,,,,,,,,,,,,,,,,,,,,,,,,,,,/muse/elements/blink
2024-10-09 17:43:22.711,,,,,,,,,,,,,,,,,,,,,,,,,,,,,,,,,,,,,,/muse/elements/blink
2024-10-09 17:43:22.749,1.107195917309175,0.7501444125687169,1.115277127483538,1.741250639969141,0.9806874426646421,-0.04612010838448023,0.8067823118707511,1.683468163158486,0.8383870798920922,0.2267800901242505,0.6011172562487115,1.24602717266352,0.6839833296110431,0.4547719673439845,0.6452051911085372,0.6188864588606944,0.2500905914525777,0.7627561509652755,0.5765408170043195,0.1896052837985056,761.1355311355312,804.2490842490843,799.8168498168499,1274.065934065934,1226.923076923077,-0.252747,0.034912,0.959778,-0.523376,-3.611298,12.157288,1,2,4,1,4,50.000000
2024-10-09 17:43:23.749,1.107195917309175,0.7501444125687169,1.213815691383681,1.741250639969141,0.9806874426646421,-0.04612010838448023,0.8063282121677992,1.683468163158486,0.8383870798920922,0.2267800901242505,0.5802471177484592,1.24602717266352,0.6839833296110431,0.4547719673439845,0.6986333326476291,0.6188864588606944,0.2500905914525777,0.7627561509652755,0.5732459717996905,0.1896052837985056,624.5421245421246,810.2930402930403,783.2967032967033,800.2197802197802,791.3553113553114,-0.249512,0.035828,0.959106,2.886047,-5.016937,-3.626251,1,2,1,1,4,50.000000
2024-10-09 17:43:23.927,,,,,,,,,,,,,,,,,,,,,,,,,,,,,,,,,,,,,,/muse/elements/blink
2024-10-09 17:43:24.259,,,,,,,,,,,,,,,,,,,,,,,,,,,,,,,,,,,,,,/muse/elements/blink
2024-10-09 17:43:24.682,,,,,,,,,,,,,,,,,,,,,,,,,,,,,,,,,,,,,,/muse/elements/blink
2024-10-09 17:43:24.749,1.107195917309175,0.7501444125687169,1.213815691383681,1.741250639969141,0.9806874426646421,-0.04612010838448023,0.8063282121677992,1.683468163158486,0.8383870798920922,0.2267800901242505,0.5802471177484592,1.24602717266352,0.6839833296110431,0.4547719673439845,0.6986333326476291,0.6188864588606944,0.2500905914525777,0.7627561509652755,0.5732459717996905,0.1896052837985056,765.5677655677656,792.5641025641025,812.7106227106227,781.6849816849817,690.2197802197802,-0.252625,0.013245,0.967163,-0.643005,2.549591,-7.588959,1,2,1,1,4,50.000000
2024-10-09 17:43:24.965,,,,,,,,,,,,,,,,,,,,,,,,,,,,,,,,,,,,,,/muse/elements/blink
2024-10-09 17:43:25.753,1.107195917309175,0.7501444125687169,0.651785098036563,1.741250639969141,0.9806874426646421,-0.04612010838448023,-0.2614187162643388,1.683468163158486,0.8383870798920922,0.2267800901242505,0.05169662414596495,1.24602717266352,0.6839833296110431,0.4547719673439845,-0.05296131688130435,0.6188864588606944,0.2500905914525777,0.7627561509652755,-0.08015966736756759,0.1896052837985056,961.7948717948718,800.6227106227107,805.8608058608058,856.2271062271062,578.6080586080586,-0.246277,0.023560,0.959351,-0.306549,-2.093506,2.639313,1,2,1,1,2,50.000000
2024-10-09 17:43:25.886,,,,,,,,,,,,,,,,,,,,,,,,,,,,,,,,,,,,,,/muse/elements/blink
2024-10-09 17:43:26.265,,,,,,,,,,,,,,,,,,,,,,,,,,,,,,,,,,,,,,/muse/elements/blink
2024-10-09 17:43:26.749,1.107195917309175,0.1163534208149516,0.5279282118539799,1.741250639969141,0.9806874426646421,-0.03777097769499846,-0.2557928055916601,1.683468163158486,0.8383870798920922,0.1708427862750221,0.05940922418529161,1.24602717266352,0.6839833296110431,0.2507023680586872,-0.01861758929420174,0.6188864588606944,0.2500905914525777,-0.2297449419515123,-0.1691601012589132,0.1896052837985056,853.8095238095239,775.2380952380953,799.8168498168499,1141.098901098901,1003.296703296703,-0.220154,0.031677,0.973083,0.239258,-1.248627,1.936493,1,2,1,1,2,50.000000
2024-10-09 17:43:27.749,1.107195917309175,0.2646745117414869,0.6664633878006487,1.741250639969141,0.9806874426646421,0.1781522460522295,0.1747751419611043,1.683468163158486,0.8383870798920922,0.1700098784064883,0.3246665414591583,1.24602717266352,0.6839833296110431,0.1907130712395937,-0.08037565262122415,0.6188864588606944,0.2500905914525777,-0.133976227068967,-0.5259063436598519,0.1896052837985056,717.6190476190476,794.1758241758242,797.3992673992674,651.5384615384615,568.5347985347986,-0.267639,0.015076,0.965820,-0.426178,1.749573,-6.796417,1,2,1,1,2,50.000000
2024-10-09 17:43:27.918,,,,,,,,,,,,,,,,,,,,,,,,,,,,,,,,,,,,,,/muse/elements/blink
2024-10-09 17:43:28.753,1.107195917309175,-0.5310396929760192,0.2684791582599785,1.741250639969141,0.9806874426646421,-0.5358068020332424,-0.09400468517957049,1.683468163158486,0.8383870798920922,-0.1406525579494735,0.3259482506933005,1.24602717266352,0.6839833296110431,-0.05914399503375398,-0.1518044092951171,0.6188864588606944,0.2500905914525777,-0.4128773430860248,-0.5032609877412388,0.1896052837985056,726.8864468864469,791.7582417582418,806.2637362637363,756.7032967032967,692.2344322344322,-0.276489,0.015686,0.961670,-4.157104,-3.858032,12.688141,1,2,1,1,2,50.000000
2024-10-09 17:43:29.754,1.107195917309175,0.2047751811344891,0.1988907170774513,1.741250639969141,0.9806874426646421,-0.1086187793345201,-0.1152718932783866,1.683468163158486,0.8383870798920922,0.2457077101007482,-0.07126386092693601,1.24602717266352,0.6839833296110431,-0.05055353082334221,-0.04953999253989309,0.6188864588606944,0.2500905914525777,-0.4453219288003365,-0.3350674831253054,0.1896052837985056,829.2307692307693,768.3882783882784,736.1538461538462,0.8058608058608059,0,-0.318298,0.012451,0.949280,1.510315,1.405640,0.695343,1,2,1,1,2,50.000000
2024-10-09 17:43:29.833,,,,,,,,,,,,,,,,,,,,,,,,,,,,,,,,,,,,,,/muse/elements/blink
