TimeStamp,Delta_TP9,Delta_AF7,Delta_AF8,Delta_TP10,Theta_TP9,Theta_AF7,Theta_AF8,Theta_TP10,Alpha_TP9,Alpha_AF7,Alpha_AF8,Alpha_TP10,Beta_TP9,Beta_AF7,Beta_AF8,Beta_TP10,Gamma_TP9,Gamma_AF7,Gamma_AF8,Gamma_TP10,RAW_TP9,RAW_AF7,RAW_AF8,RAW_TP10,AUX_RIGHT,Accelerometer_X,Accelerometer_Y,Accelerometer_Z,Gyro_X,Gyro_Y,Gyro_Z,HeadBandOn,HSI_TP9,HSI_AF7,HSI_AF8,HSI_TP10,Battery,Elements
2024-12-17 13:56:25.124,,,,,,,,,,,,,,,,,,,,,,,,,,,,,,,,,,,,,,/muse/event/connected Muse-D2D3
2024-12-17 13:56:25.224,,,,,,,,,,,,,,,,,,,,,,,,,,,,,,,,,,,,,,/muse/elements/blink
2024-12-17 13:56:25.625,0.7687945330167062,0.1524202724559225,0.4798879187652617,0.7059318949753116,0.5261152155673913,0.1047321904026683,0.1782299767920118,-0.05082228669651109,0.6211198456092938,0.2560331658950259,0.197710947067169,0.5934117035402062,0.8978759631949395,0.2809677397932271,0.05213373156723203,0.9163060261040948,0.8939397792696278,0.1690539769463797,-0.2296261630235898,0.6126763839361967,793.7728937728938,796.1904761904763,799.0109890109891,776.4468864468864,703.919413919414,-0.304138,0.063110,0.927429,6.437531,-4.987030,-6.631927,1,2,1,1,2,50.000000
2024-12-17 13:56:26.128,,,,,,,,,,,,,,,,,,,,,,,,,,,,,,,,,,,,,,/muse/elements/blink
2024-12-17 13:56:26.141,0.7687945330167062,0.2164637002106803,0.5752066990032378,0.7059318949753116,0.5261152155673913,0.1321394433836505,0.2620850298962142,-0.05082228669651109,0.6211198456092938,0.2279119597300174,0.2350393168824435,0.5934117035402062,0.8978759631949395,0.2118315223071646,-0.01017923342259301,0.9163060261040948,0.8939397792696278,0.009255391881003588,-0.2272642951296743,0.6126763839361967,834.4688644688645,803.040293040293,790.952380952381,816.7399267399268,727.2893772893773,-0.357361,0.047791,0.958252,-4.157104,-1.600037,-8.598328,1,2,1,1,2,50.000000
2024-12-17 13:56:26.625,0.7687945330167062,0.2490274252930295,0.8039963770526979,0.7059318949753116,0.5261152155673913,0.1649653996746977,0.6168319642895147,-0.05082228669651109,0.6211198456092938,0.1975606285249264,0.4120649955978088,0.5934117035402062,0.8978759631949395,0.07092927076868474,0.05442440758645552,0.9163060261040948,0.8939397792696278,-0.117385023964129,-0.2101377046955165,0.6126763839361967,725.2747252747253,817.1428571428571,813.5164835164835,679.3406593406594,721.6483516483516,-0.317322,0.080811,0.967529,5.502930,-3.484192,0.814972,1,2,1,1,2,50.000000
2024-12-17 13:56:26.877,,,,,,,,,,,,,,,,,,,,,,,,,,,,,,,,,,,,,,/muse/elements/blink
2024-12-17 13:56:27.125,0.7687945330167062,0.1539370737896042,0.8388520327096143,0.7059318949753116,0.5261152155673913,-0.02169146288213438,0.7007722528390267,-0.05082228669651109,0.6211198456092938,0.2145384206131049,0.3980603098582319,0.5934117035402062,0.8978759631949395,0.1346773333814504,0.04644584755699154,0.9163060261040948,0.8939397792696278,-0.06110483328613754,-0.1720367822564015,0.6126763839361967,806.6666666666667,796.1904761904763,806.2637362637363,814.3223443223443,833.6630036630037,-0.294373,0.090027,0.965393,2.138367,-3.117828,2.332764,1,2,1,1,2,50.000000
2024-12-17 13:56:27.352,,,,,,,,,,,,,,,,,,,,,,,,,,,,,,,,,,,,,,/muse/elements/blink
2024-12-17 13:56:27.625,0.7687945330167062,-0.0297129612679784,0.888579396690381,0.7059318949753116,0.5261152155673913,-0.09545292766591719,0.783489128672177,-0.05082228669651109,0.6211198456092938,0.2503309924065666,0.5206166548209965,0.5934117035402062,0.8978759631949395,0.3832718145804237,0.08495230637986226,0.9163060261040948,0.8939397792696278,0.199186960038822,-0.1143740194507323,0.6126763839361967,834.8717948717949,807.8754578754579,799.8168498168499,815.934065934066,1004.505494505495,-0.276733,0.070496,0.980347,1.846771,-2.616882,-1.315918,1,2,1,1,2,50.000000
2024-12-17 13:56:28.125,0.7687945330167062,0.002061524153068731,0.7240372603226389,0.7059318949753116,0.5261152155673913,0.05177065196936818,0.5807919435097408,-0.05082228669651109,0.6211198456092938,0.598380817595248,0.3744108012025711,0.5934117035402062,0.8978759631949395,0.634955737008333,0.06770593604973471,0.9163060261040948,0.8939397792696278,0.5551508504120309,-0.0951230580275967,0.6126763839361967,814.3223443223443,788.1318681318681,794.1758241758242,786.5201465201466,792.1611721611722,-0.279114,0.066040,0.976135,2.863617,-2.190704,2.183228,1,2,1,1,2,50.000000
2024-12-17 13:56:28.478,,,,,,,,,,,,,,,,,,,,,,,,,,,,,,,,,,,,,,/muse/elements/blink
2024-12-17 13:56:28.625,0.7687945330167062,-0.08150170619562448,0.4785698921668696,0.7059318949753116,0.5261152155673913,0.1352854174117528,0.3632042521865441,-0.05082228669651109,0.6211198456092938,0.6823393628551935,0.2952927585694788,0.5934117035402062,0.8978759631949395,0.6460589703861983,0.08746018014581465,0.9163060261040948,0.8939397792696278,0.5841594299217134,-0.1169172621369703,0.6126763839361967,811.5018315018315,802.6373626373627,800.6227106227107,795.3846153846154,678.5347985347986,-0.275391,0.062073,0.941711,2.071075,1.128998,1.226196,1,2,1,1,2,50.000000
2024-12-17 13:56:29.140,0.7687945330167062,0.1243076218858146,0.3365038206137531,0.7059318949753116,0.5261152155673913,0.1991355934196041,0.2288237531171391,-0.05082228669651109,0.6211198456092938,0.6839380656727638,0.389931454180543,0.5934117035402062,0.8978759631949395,0.7017739182251199,0.08563828689973596,0.9163060261040948,0.8939397792696278,0.6217975802119436,-0.1957353614120281,0.6126763839361967,827.6190476190476,810.2930402930403,799.8168498168499,823.5897435897436,679.3406593406594,-0.449890,0.038513,0.976562,2.908478,1.846771,1.151428,1,2,1,1,2,50.000000
2024-12-17 13:56:29.634,0.7687945330167062,0.1376984950229997,0.3324498015388974,0.7059318949753116,0.5261152155673913,0.09219687822106402,0.1854154767206929,-0.05082228669651109,0.6211198456092938,0.6641413807304759,0.2985544939705162,0.5934117035402062,0.8978759631949395,0.8140590166346064,0.1269385522807079,0.9163060261040948,0.8939397792696278,0.7484089889140623,-0.2179221700034255,0.6126763839361967,821.978021978022,799.4139194139194,802.2344322344322,868.3150183150184,714.7985347985348,-0.267090,0.125793,0.815552,6.467438,-20.912628,-6.923523,1,2,1,1,2,50.000000
2024-12-17 13:56:29.642,,,,,,,,,,,,,,,,,,,,,,,,,,,,,,,,,,,,,,/muse/elements/blink
2024-12-17 13:56:30.126,0.7687945330167062,0.2585240836457935,0.488054997552561,0.7059318949753116,0.5261152155673913,0.04806797016887674,0.3628839875659166,-0.05082228669651109,0.6211198456092938,0.3332088384711189,0.3081550980483353,0.5934117035402062,0.8978759631949395,0.9503270079895964,0.1229148876431213,0.9163060261040948,0.8939397792696278,0.8808018255836971,-0.1296777558721657,0.6126763839361967,895.3113553113553,801.4285714285714,801.8315018315019,860.2564102564103,827.6190476190476,-0.338806,-0.051758,0.921265,-9.921722,4.351501,9.996490,1,2,1,1,2,50.000000
2024-12-17 13:56:30.208,,,,,,,,,,,,,,,,,,,,,,,,,,,,,,,,,,,,,,/muse/elements/blink
2024-12-17 13:56:30.625,0.7687945330167062,0.5210329825213837,0.6549909367447225,0.7059318949753116,0.5261152155673913,0.07088838675318113,0.4065306934492739,-0.05082228669651109,0.6211198456092938,0.5354831636771074,0.2889881327673641,0.5934117035402062,0.8978759631949395,1.023458526994605,0.1949208332879241,0.9163060261040948,0.8939397792696278,0.8943899421695184,-0.06710785022118915,0.6126763839361967,979.92673992674,794.1758241758242,798.6080586080586,830.4395604395604,1220.476190476191,-0.277466,0.192871,1.221252,7.005768,-5.345917,-1.353302,1,2,1,1,2,50.000000
2024-12-17 13:56:31.124,0.7687945330167062,0.6615212569711312,0.6714606231366634,0.7059318949753116,0.5261152155673913,0.1419635104405204,0.4391419547243383,-0.05082228669651109,0.6211198456092938,0.7066483092116053,0.3230302421625231,0.5934117035402062,0.8978759631949395,0.9359504648174872,0.1427726757909619,0.9163060261040948,0.8939397792696278,0.5554946999562225,-0.08155730150958609,0.6126763839361967,815.934065934066,819.1575091575091,804.6520146520147,800.2197802197802,675.7142857142858,-0.392822,0.118835,1.371765,0.381317,14.377899,12.658234,1,2,1,1,2,50.000000
2024-12-17 13:56:31.332,,,,,,,,,,,,,,,,,,,,,,,,,,,,,,,,,,,,,,/muse/elements/blink
2024-12-17 13:56:31.626,0.7687945330167062,0.7436700738708043,0.6130649833488608,0.7059318949753116,0.5261152155673913,0.1889799310670172,0.2915014188051716,-0.05082228669651109,0.6211198456092938,0.7575284934836881,0.3732032286200579,0.5934117035402062,0.8978759631949395,0.9511919051903757,0.1994929029151605,0.9163060261040948,0.8939397792696278,0.5469831316703454,-0.08884954408164103,0.6126763839361967,774.0293040293041,801.025641025641,801.4285714285714,796.5934065934066,753.8827838827839,-0.383301,0.048584,1.121094,1.719666,13.054504,-8.927307,1,4,1,1,2,50.000000
2024-12-17 13:56:32.141,0.7687945330167062,0.6941663045775883,0.3266259622030767,0.7059318949753116,0.5261152155673913,0.1439975376050691,0.06066425316831529,-0.05082228669651109,0.6211198456092938,0.7575836629990953,0.3179538216208089,0.5934117035402062,0.8978759631949395,0.862893304614028,0.1753349745976233,0.9163060261040948,0.8939397792696278,0.5202026850815876,-0.1620555180361291,0.6126763839361967,819.96336996337,819.96336996337,786.1172161172161,768.3882783882784,845.3479853479854,-0.290894,0.153748,0.991577,0.792542,9.615173,4.658051,1,2,1,1,2,50.000000
2024-12-17 13:56:32.313,,,,,,,,,,,,,,,,,,,,,,,,,,,,,,,,,,,,,,/muse/elements/blink
2024-12-17 13:56:32.625,0.7687945330167062,0.6576189025307863,0.5370598277585983,0.7059318949753116,0.5261152155673913,0.1344770571093502,0.03473217350709443,-0.05082228669651109,0.6211198456092938,0.7142854007700911,0.3786169746005772,0.5934117035402062,0.8978759631949395,0.7761814043960712,0.1774156745545324,0.9163060261040948,0.8939397792696278,0.390809926486607,-0.2172332812335043,0.6126763839361967,805.0549450549451,796.5934065934066,796.5934065934066,805.4578754578755,635.4212454212454,-0.282043,0.073975,0.873474,10.691833,-10.744171,10.572205,1,4,1,1,2,50.000000
2024-12-17 13:56:33.125,0.7687945330167062,0.7102004048551018,0.7681811175793102,0.7059318949753116,0.5261152155673913,0.1871274556301255,0.1073485178980054,-0.05082228669651109,0.6211198456092938,0.5729535420316418,0.3793205561643037,0.5934117035402062,0.8978759631949395,0.7650017691748346,0.15882063624121,0.9163060261040948,0.8939397792696278,0.2696094467397535,-0.2539679461417995,0.6126763839361967,687.3992673992674,805.0549450549451,821.978021978022,682.1611721611722,674.1025641025641,-0.253479,0.100586,0.747803,-3.342133,1.315918,-11.656342,1,2,1,1,2,50.000000
2024-12-17 13:56:33.347,,,,,,,,,,,,,,,,,,,,,,,,,,,,,,,,,,,,,,/muse/elements/blink
2024-12-17 13:56:33.639,0.7687945330167062,0.7190807584118794,0.8529691838900236,0.7059318949753116,0.5261152155673913,0.2877317995181989,0.2183141520464956,-0.05082228669651109,0.6211198456092938,0.8081634868069761,0.415962315486534,0.5934117035402062,0.8978759631949395,0.8065478502468499,0.08353956252545984,0.9163060261040948,0.8939397792696278,0.3671589689596953,-0.2266035554638325,0.6126763839361967,751.0622710622711,803.040293040293,801.8315018315019,806.2637362637363,634.2124542124542,-0.304871,0.012390,0.759338,4.957123,-16.269531,-0.164490,1,2,1,1,2,50.000000
2024-12-17 13:56:34.125,0.7687945330167062,0.6851868844487549,0.8536444859673089,0.7059318949753116,0.5261152155673913,0.3324501692232988,0.3410541404526886,-0.05082228669651109,0.6211198456092938,0.8544323682014312,0.4215004562315272,0.5934117035402062,0.8978759631949395,0.8152957722239873,0.1431002229991219,0.9163060261040948,0.8939397792696278,0.4875539700012532,-0.2282981606848758,0.6126763839361967,780.4761904761905,783.2967032967033,804.6520146520147,811.5018315018315,853.4065934065934,-0.214722,0.108582,0.894592,-1.786957,-6.205750,-3.820648,1,2,1,1,2,50.000000
2024-12-17 13:56:34.373,,,,,,,,,,,,,,,,,,,,,,,,,,,,,,,,,,,,,,/muse/elements/blink
2024-12-17 13:56:34.625,0.7687945330167062,0.5956254422506798,0.721410744011029,0.7059318949753116,0.5261152155673913,0.3217434931312729,0.4163276760708093,-0.05082228669651109,0.6211198456092938,0.8358919028372916,0.4147932478867551,0.5934117035402062,0.8978759631949395,0.7136057032654907,0.2365276313539808,0.9163060261040948,0.8939397792696278,0.58577586474848,-0.185532322751877,0.6126763839361967,912.2344322344322,800.6227106227107,795.7875457875458,799.8168498168499,851.7948717948718,-0.411499,0.012512,0.993591,-6.833801,13.510590,2.175751,1,2,1,1,2,50.000000
2024-12-17 13:56:35.126,0.7687945330167062,0.447093617072211,0.8029957535581215,0.7059318949753116,0.5261152155673913,0.226803811779153,0.507164439780179,-0.05082228669651109,0.6211198456092938,0.7638867361088655,0.4152834523539158,0.5934117035402062,0.8978759631949395,0.6258724404820987,0.335313587097669,0.9163060261040948,0.8939397792696278,0.6003749638015257,-0.05022641635686712,0.6126763839361967,921.5018315018315,812.3076923076924,796.5934065934066,835.2747252747253,937.6190476190476,-0.606384,0.158142,1.623596,0.194397,13.862000,-9.495544,1,2,1,1,2,50.000000
2024-12-17 13:56:35.625,0.7687945330167062,0.4728826533795575,0.9084343345655179,0.7059318949753116,0.5261152155673913,0.1833844872261002,0.4800556893654904,-0.05082228669651109,0.6211198456092938,0.6836246627389508,0.4528494296692778,0.5934117035402062,0.8978759631949395,0.5988631158335881,0.3942050498581698,0.9163060261040948,0.8939397792696278,0.6972657392362781,0.1657724401707833,0.6126763839361967,793.7728937728938,801.8315018315019,793.7728937728938,808.6813186813187,782.4908424908425,-0.509705,0.135132,1.209656,1.517792,10.303040,4.269257,1,2,1,1,2,50.000000
2024-12-17 13:56:36.125,0.7687945330167062,0.4728826533795575,1.048917423095133,0.7059318949753116,0.5261152155673913,0.1833844872261002,0.4130850236531922,-0.05082228669651109,0.6211198456092938,0.6836246627389508,0.4387787925558144,0.5934117035402062,0.8978759631949395,0.5988631158335881,0.385498530886331,0.9163060261040948,0.8939397792696278,0.6972657392362781,0.2199951477736583,0.6126763839361967,979.1208791208792,788.5347985347986,796.1904761904763,838.4981684981685,822.7838827838829,-0.408569,0.070068,0.990540,2.422485,-2.130890,0.859833,1,2,1,1,2,50.000000
2024-12-17 13:56:36.192,,,,,,,,,,,,,,,,,,,,,,,,,,,,,,,,,,,,,,/muse/elements/blink
2024-12-17 13:56:36.569,,,,,,,,,,,,,,,,,,,,,,,,,,,,,,,,,,,,,,/muse/elements/blink
2024-12-17 13:56:36.624,0.7687945330167062,0.4728826533795575,1.044381746476386,0.7059318949753116,0.5261152155673913,0.1833844872261002,0.3420132731937116,-0.05082228669651109,0.6211198456092938,0.6836246627389508,0.3390912867994041,0.5934117035402062,0.8978759631949395,0.5988631158335881,0.3872675435378014,0.9163060261040948,0.8939397792696278,0.6972657392362781,0.1665193652213907,0.6126763839361967,890.4761904761905,772.4175824175825,794.981684981685,837.2893772893773,692.2344322344322,-0.270508,0.098206,0.832825,6.751556,-11.559143,-4.097290,1,2,1,1,2,50.000000
2024-12-17 13:56:37.125,0.7687945330167062,0.4728826533795575,0.9185479611049799,0.7059318949753116,0.5261152155673913,0.1833844872261002,0.2409445106427782,-0.05082228669651109,0.6211198456092938,0.6836246627389508,0.2523897809908073,0.5934117035402062,0.8978759631949395,0.5988631158335881,0.3560174808294939,0.9163060261040948,0.8939397792696278,0.6972657392362781,0.06107675500629416,0.6126763839361967,859.8534798534798,796.996336996337,797.3992673992674,848.5714285714286,701.0989010989011,-0.219543,0.057434,0.813721,5.353394,-3.401947,9.503021,1,4,1,1,2,50.000000
2024-12-17 13:56:37.201,,,,,,,,,,,,,,,,,,,,,,,,,,,,,,,,,,,,,,/muse/elements/blink
2024-12-17 13:56:37.625,0.7687945330167062,0.4728826533795575,1.320757789343554,0.7059318949753116,0.5261152155673913,0.1833844872261002,0.9144153826036026,-0.05082228669651109,0.6211198456092938,0.6836246627389508,0.4134138462397464,0.5934117035402062,0.8978759631949395,0.5988631158335881,0.008586449707284794,0.9163060261040948,0.8939397792696278,0.6972657392362781,-0.3398790740062594,0.6126763839361967,786.9230769230769,795.3846153846154,804.2490842490843,810.2930402930403,688.2051282051282,-0.168152,0.092651,0.814819,-5.480499,-5.256195,-10.332947,1,2,1,1,2,50.000000
2024-12-17 13:56:37.898,,,,,,,,,,,,,,,,,,,,,,,,,,,,,,,,,,,,,,/muse/elements/blink
2024-12-17 13:56:38.125,0.7687945330167062,0.3234968523525408,1.238683102185088,0.7059318949753116,0.5261152155673913,0.2085332807283301,0.8180069340410513,-0.05082228669651109,0.6211198456092938,0.6594412505291508,0.4771190232622977,0.5934117035402062,0.8978759631949395,0.7449415902883217,-0.04111888300360021,0.9163060261040948,0.8939397792696278,0.08555236097148929,-0.3542604420605635,0.6126763839361967,599.9633699633699,780.0732600732601,781.2820512820513,764.7619047619048,808.6813186813187,-0.272949,-0.026733,0.966370,-8.246918,0.814972,2.564545,1,2,1,1,2,50.000000
2024-12-17 13:56:38.414,,,,,,,,,,,,,,,,,,,,,,,,,,,,,,,,,,,,,,/muse/elements/blink
2024-12-17 13:56:38.631,0.7687945330167062,0.3234968523525408,1.238683102185088,0.7059318949753116,0.5261152155673913,0.2085332807283301,0.8180069340410513,-0.05082228669651109,0.6211198456092938,0.6594412505291508,0.4771190232622977,0.5934117035402062,0.8978759631949395,0.7449415902883217,-0.04111888300360021,0.9163060261040948,0.8939397792696278,0.08555236097148929,-0.3542604420605635,0.6126763839361967,699.0842490842491,777.2527472527473,835.6776556776557,823.992673992674,827.6190476190476,-0.392029,0.099731,0.787048,0.702820,-13.488159,-1.517792,1,4,1,1,2,50.000000
2024-12-17 13:56:39.125,0.7687945330167062,0.1864345856250292,1.162001753821795,0.7059318949753116,0.5261152155673913,0.209258174004902,0.8174677605174736,-0.05082228669651109,0.6211198456092938,0.6521589515380124,0.6269630080928431,0.5934117035402062,0.8978759631949395,0.4868225955224857,0.02231022039213159,0.9163060261040948,0.8939397792696278,-0.147667656014214,-0.1086768735142206,0.6126763839361967,1003.296703296703,800.6227106227107,792.967032967033,913.040293040293,1061.318681318681,-0.449585,0.125977,1.235046,2.519684,-4.052429,-13.039551,1,4,1,1,2,50.000000
2024-12-17 13:56:39.252,,,,,,,,,,,,,,,,,,,,,,,,,,,,,,,,,,,,,,/muse/elements/blink
2024-12-17 13:56:39.638,0.7687945330167062,0.1864345856250292,1.498830286254615,0.7059318949753116,0.5261152155673913,0.209258174004902,1.349830986989202,-0.05082228669651109,0.6211198456092938,0.6521589515380124,1.029566742805211,0.5934117035402062,0.8978759631949395,0.4868225955224857,0.3202558559649337,0.9163060261040948,0.8939397792696278,-0.147667656014214,0.2668581152556541,0.6126763839361967,746.2271062271062,825.2014652014652,815.1282051282052,678.1318681318681,756.7032967032967,-0.362244,0.109375,1.095764,-10.213318,-0.164490,-6.310425,1,2,1,1,2,50.000000
2024-12-17 13:56:39.859,,,,,,,,,,,,,,,,,,,,,,,,,,,,,,,,,,,,,,/muse/elements/blink
2024-12-17 13:56:40.125,0.7687945330167062,0.1864345856250292,1.34941617020928,0.7059318949753116,0.5261152155673913,0.209258174004902,1.179482965687999,-0.05082228669651109,0.6211198456092938,0.6521589515380124,1.029566742805211,0.5934117035402062,0.8978759631949395,0.4868225955224857,0.2851355826460487,0.9163060261040948,0.8939397792696278,-0.147667656014214,0.189208470604604,0.6126763839361967,850.5860805860806,804.6520146520147,798.6080586080586,802.6373626373627,890.8791208791209,-0.416809,0.132629,1.091003,6.108551,10.101166,-1.585083,1,4,1,1,2,50.000000
2024-12-17 13:56:40.625,0.7687945330167062,0.80946566067647,1.184122854962655,0.7059318949753116,0.5261152155673913,0.1383309779828298,1.023425049635735,-0.05082228669651109,0.6211198456092938,0.2975791020573831,1.029566742805211,0.5934117035402062,0.8978759631949395,0.7890108331165239,0.211986605729038,0.9163060261040948,0.8939397792696278,0.1871968946736673,0.1272567503287333,0.6126763839361967,807.0695970695971,796.5934065934066,799.0109890109891,829.6336996336996,660,-0.295349,0.074524,1.052368,0.328979,-5.891724,-1.779480,1,4,1,1,2,50.000000
2024-12-17 13:56:41.137,0.7687945330167062,0.7607723941053524,0.7004594713816834,0.7059318949753116,0.5261152155673913,0.0585025775813687,0.4914356920368161,-0.05082228669651109,0.6211198456092938,0.5344725559290736,0.7802152045224779,0.5934117035402062,0.8978759631949395,0.6070855840107194,0.1301837495316367,0.9163060261040948,0.8939397792696278,0.1343461828539326,-0.05689065418638607,0.6126763839361967,827.6190476190476,805.8608058608058,798.2051282051282,759.1208791208792,634.6153846153846,-0.207520,0.112915,0.822266,2.773895,-2.317810,-7.633820,1,2,1,1,2,50.000000
2024-12-17 13:56:41.361,,,,,,,,,,,,,,,,,,,,,,,,,,,,,,,,,,,,,,/muse/elements/blink
2024-12-17 13:56:41.626,0.7687945330167062,0.6940641037696903,0.005385946613024052,0.7059318949753116,0.5261152155673913,0.1639268778117207,0.1864046556336783,-0.05082228669651109,0.6211198456092938,0.5988667955908453,0.6464423767455199,0.5934117035402062,0.8978759631949395,0.563789713916325,0.1354194276828447,0.9163060261040948,0.8939397792696278,0.1760391216504139,-0.181076729073723,0.6126763839361967,753.0769230769231,781.2820512820513,803.4432234432235,786.9230769230769,644.6886446886447,-0.242126,0.073059,0.789673,7.618866,-11.073151,6.160889,1,2,1,1,2,50.000000
2024-12-17 13:56:42.125,0.7687945330167062,0.6455157362859123,0.112786209987412,0.7059318949753116,0.5261152155673913,0.2115925155091606,0.2922417811027985,-0.05082228669651109,0.6211198456092938,0.6097788878485071,0.6532577213544422,0.5934117035402062,0.8978759631949395,0.4788784292973686,0.2114244487917847,0.9163060261040948,0.8939397792696278,0.1388446693590655,-0.2639237779978268,0.6126763839361967,638.2417582417582,788.1318681318681,798.6080586080586,765.9706959706959,755.4945054945055,-0.214417,0.076843,0.736145,-4.329071,-24.905243,-4.396362,1,2,1,1,2,50.000000
2024-12-17 13:56:42.577,,,,,,,,,,,,,,,,,,,,,,,,,,,,,,,,,,,,,,/muse/elements/blink
2024-12-17 13:56:42.640,0.7687945330167062,0.6747352282594341,0.2762775032601099,0.7059318949753116,0.5261152155673913,0.2859404364569046,0.3209303925290672,-0.05082228669651109,0.6211198456092938,0.5481937791387781,0.6549115484772322,0.5934117035402062,0.8978759631949395,0.5604622458965602,0.2194298725921098,0.9163060261040948,0.8939397792696278,0.1166753850517039,-0.2897743171211045,0.6126763839361967,753.4798534798535,802.6373626373627,796.996336996337,834.0659340659341,779.6703296703297,-0.178467,-0.008484,0.773254,0.239258,-14.138641,12.770386,1,2,1,1,2,50.000000
2024-12-17 13:56:43.125,0.7687945330167062,0.6741777398207693,0.7717849258640025,0.7059318949753116,0.5261152155673913,0.3010123878160039,0.301619904576624,-0.05082228669651109,0.6211198456092938,0.5302722674188057,0.6586595231580754,0.5934117035402062,0.8978759631949395,0.5265388725526833,0.1495457042548807,0.9163060261040948,0.8939397792696278,0.1306553642820962,-0.1390729135910113,0.6126763839361967,863.8827838827839,805.0549450549451,802.2344322344322,825.2014652014652,1066.556776556777,-0.163452,0.147095,0.935181,2.923431,-3.940277,-5.764618,1,2,1,1,2,50.000000
2024-12-17 13:56:43.625,0.7687945330167062,0.8381757098102829,0.9507819853973339,0.7059318949753116,0.5261152155673913,0.4323538987684921,0.2578780733419154,-0.05082228669651109,0.6211198456092938,0.5017993520152483,0.1715092606365104,0.5934117035402062,0.8978759631949395,0.4727446637491428,0.07953881629870138,0.9163060261040948,0.8939397792696278,0.1050738006174263,-0.1403964731664808,0.6126763839361967,933.992673992674,798.2051282051282,794.981684981685,841.3186813186813,815.1282051282052,-0.339355,-0.037903,0.997742,2.415009,-4.187012,9.203949,1,2,1,1,2,50.000000
2024-12-17 13:56:43.699,,,,,,,,,,,,,,,,,,,,,,,,,,,,,,,,,,,,,,/muse/elements/blink
2024-12-17 13:56:44.134,0.7687945330167062,0.8523734633095578,1.09181233215134,0.7059318949753116,0.5261152155673913,0.4635539808081628,0.3484055241634825,-0.05082228669651109,0.6211198456092938,0.5040305063018897,0.4194963208270753,0.5934117035402062,0.8978759631949395,0.4115364974133967,0.3359763253985429,0.9163060261040948,0.8939397792696278,0.1584364049006486,0.0698058294970709,0.6126763839361967,821.1721611721612,797.3992673992674,774.8351648351648,783.6996336996338,905.3846153846154,-0.286377,0.205750,1.253235,9.061890,-6.998291,0.336456,1,2,1,1,2,50.000000
2024-12-17 13:56:44.406,,,,,,,,,,,,,,,,,,,,,,,,,,,,,,,,,,,,,,/muse/elements/blink
2024-12-17 13:56:44.625,0.7687945330167062,0.9885469071786817,1.037818744597401,0.7059318949753116,0.5261152155673913,0.5305175302683718,0.3735086313484493,-0.05082228669651109,0.6211198456092938,0.5034213761346257,0.4194963208270753,0.5934117035402062,0.8978759631949395,0.4601068160749279,0.4601597447433309,0.9163060261040948,0.8939397792696278,0.05287472637767657,0.2084188555798808,0.6126763839361967,163.5897435897436,790.5494505494506,756.3003663003664,838.0952380952381,903.3699633699634,-0.179321,0.053650,1.048157,4.000092,-4.351501,7.910461,1,2,1,1,2,50.000000
2024-12-17 13:56:45.125,0.7687945330167062,0.935634639252939,1.111843326835977,0.7059318949753116,0.5261152155673913,0.3909466248638654,0.5160742260716504,-0.05082228669651109,0.6211198456092938,0.4892102704186546,0.4593473619719532,0.5934117035402062,0.8978759631949395,0.4901974122909682,0.4876159223392589,0.9163060261040948,0.8939397792696278,0.1045343963870723,0.2900150052020274,0.6126763839361967,497.2161172161173,798.2051282051282,783.2967032967033,831.2454212454213,730.9157509157509,-0.342712,0.129211,1.299744,-1.016846,5.929108,-12.830200,1,2,1,1,2,50.000000
2024-12-17 13:56:45.535,,,,,,,,,,,,,,,,,,,,,,,,,,,,,,,,,,,,,,/muse/elements/blink
2024-12-17 13:56:45.625,0.7687945330167062,0.6768254722050796,1.113194294164113,0.7059318949753116,0.5261152155673913,0.2941155477979908,0.5378366921974406,-0.05082228669651109,0.6211198456092938,0.4385258810729996,0.4620224365758134,0.5934117035402062,0.8978759631949395,0.8719903875456794,0.461793726185391,0.9163060261040948,0.8939397792696278,0.4859825814619054,0.3270865026598296,0.6126763839361967,834.0659340659341,806.2637362637363,794.1758241758242,801.4285714285714,884.4322344322345,-0.204346,0.161804,1.082825,1.749573,4.972076,2.953339,1,2,1,1,2,50.000000
2024-12-17 13:56:46.125,0.7687945330167062,0.6671448259297733,1.101396848586558,0.7059318949753116,0.5261152155673913,0.3420986598307135,0.58454698669214,-0.05082228669651109,0.6211198456092938,0.4420227257974264,0.4519460981553383,0.5934117035402062,0.8978759631949395,0.8325374272573625,0.3527172245455436,0.9163060261040948,0.8939397792696278,0.4538981637269267,0.2866338370720873,0.6126763839361967,806.2637362637363,809.8901098901099,786.9230769230769,763.1501831501831,626.1538461538462,-0.207092,-0.158936,0.945679,6.302948,8.830109,17.398529,1,4,1,1,2,50.000000
2024-12-17 13:56:46.426,,,,,,,,,,,,,,,,,,,,,,,,,,,,,,,,,,,,,,/muse/elements/blink
2024-12-17 13:56:46.625,0.7687945330167062,0.7453722555983028,0.7969290811938085,0.7059318949753116,0.5261152155673913,0.3945559701978708,0.4226138847349269,-0.05082228669651109,0.6211198456092938,0.6931243802875089,0.6192465761060656,0.5934117035402062,0.8978759631949395,0.8493733015163499,0.3153244052149744,0.9163060261040948,0.8939397792696278,0.4602831198285663,0.2307768865003887,0.6126763839361967,880,813.1135531135532,802.6373626373627,801.4285714285714,636.2271062271062,-0.224243,0.118958,0.782227,-7.088013,-2.990723,4.867401,1,4,1,1,2,50.000000
2024-12-17 13:56:46.660,,,,,,,,,,,,,,,,,,,,,,,,,,,,,,,,,,,,,,/muse/elements/blink
2024-12-17 13:56:47.138,0.7687945330167062,0.7792446288505469,1.025697385733422,0.7059318949753116,0.5261152155673913,0.4417176278143179,0.6016073409027338,-0.05082228669651109,0.6211198456092938,0.6479866715770615,0.7410878474895062,0.5934117035402062,0.8978759631949395,0.8362799143608718,0.3556304481202016,0.9163060261040948,0.8939397792696278,0.4453199109474919,0.1621556396179628,0.6126763839361967,861.8681318681319,790.952380952381,800.6227106227107,840.1098901098901,790.952380952381,-0.169373,0.149353,0.784119,21.622925,-21.084595,7.177734,1,4,1,1,2,50.000000
2024-12-17 13:56:47.267,,,,,,,,,,,,,,,,,,,,,,,,,,,,,,,,,,,,,,/muse/elements/blink
2024-12-17 13:56:47.630,0.7687945330167062,0.8952334433125287,0.994447179768803,0.7059318949753116,0.5261152155673913,0.5032712020969112,0.6087598097079,-0.05082228669651109,0.6211198456092938,0.6321271109010512,0.7644352601023904,0.5934117035402062,0.8978759631949395,0.888811461590574,0.3420983246033492,0.9163060261040948,0.8939397792696278,0.4758465177004703,0.04503828438018923,0.6126763839361967,635.8241758241759,796.1904761904763,804.6520146520147,795.7875457875458,745.8241758241759,-0.140442,0.086853,0.733887,-6.063690,-15.312500,-15.910645,1,2,1,1,2,50.000000
2024-12-17 13:56:48.125,0.7687945330167062,0.8952334433125287,0.9923556222569209,0.7059318949753116,0.5261152155673913,0.5032712020969112,0.5728121734549978,-0.05082228669651109,0.6211198456092938,0.6321271109010512,0.7636782569866881,0.5934117035402062,0.8978759631949395,0.888811461590574,0.3367408936325675,0.9163060261040948,0.8939397792696278,0.4758465177004703,0.007936371573965709,0.6126763839361967,820.7692307692308,788.1318681318681,802.6373626373627,788.9377289377289,738.5714285714286,-0.176575,0.016602,0.974304,2.340240,-10.968475,12.336731,1,4,1,1,2,50.000000
2024-12-17 13:56:48.413,,,,,,,,,,,,,,,,,,,,,,,,,,,,,,,,,,,,,,/muse/elements/blink
2024-12-17 13:56:48.625,0.7687945330167062,0.8952334433125287,0.5882343747627659,0.7059318949753116,0.5261152155673913,0.5032712020969112,0.408051862057804,-0.05082228669651109,0.6211198456092938,0.6321271109010512,0.5092038223912253,0.5934117035402062,0.8978759631949395,0.888811461590574,0.4290091627201383,0.9163060261040948,0.8939397792696278,0.4758465177004703,0.06202318414515116,0.6126763839361967,986.7765567765568,809.0842490842491,789.3406593406594,808.6813186813187,817.5457875457876,-0.211914,0.156616,1.074219,3.738403,-6.594543,-5.413208,1,4,1,1,2,50.000000
2024-12-17 13:56:49.125,0.7687945330167062,0.8952334433125287,0.4662922575354866,0.7059318949753116,0.5261152155673913,0.5032712020969112,0.3819022050448571,-0.05082228669651109,0.6211198456092938,0.6321271109010512,0.5792865982759461,0.5934117035402062,0.8978759631949395,0.888811461590574,0.4318429276091932,0.9163060261040948,0.8939397792696278,0.4758465177004703,0.07731769317303062,0.6126763839361967,986.3736263736264,804.2490842490843,799.8168498168499,810.2930402930403,824.7985347985348,-0.279541,0.089539,1.300903,-0.807495,10.332947,-7.895508,1,2,1,1,2,50.000000
2024-12-17 13:56:49.375,,,,,,,,,,,,,,,,,,,,,,,,,,,,,,,,,,,,,,/muse/elements/blink
2024-12-17 13:56:49.625,0.7687945330167062,0.6661819670773923,0.3670331303568934,0.7059318949753116,0.5261152155673913,0.2018233536560207,0.3457393352144365,-0.05082228669651109,0.6211198456092938,0.6507389927434997,0.5654680213325748,0.5934117035402062,0.8978759631949395,0.9042372194402386,0.4089479626878565,0.9163060261040948,0.8939397792696278,0.6753998111022782,0.04282739171492722,0.6126763839361967,786.1172161172161,820.7692307692308,790.952380952381,790.952380952381,763.5531135531136,-0.055969,0.171204,0.969727,-3.244934,-7.237549,-17.525635,1,2,1,1,2,50.000000
2024-12-17 13:56:50.135,0.7687945330167062,0.6899578483014861,0.4416013598017772,0.7059318949753116,0.5261152155673913,0.2069366734021829,0.4449117627102925,-0.05082228669651109,0.6211198456092938,0.6507389927434997,0.5915489241778619,0.5934117035402062,0.8978759631949395,0.8772525999465055,0.3187794851569755,0.9163060261040948,0.8939397792696278,0.6956073971430952,0.02113706253308312,0.6126763839361967,679.7435897435897,824.3956043956044,808.2783882783883,867.9120879120879,893.6996336996338,-0.210083,0.041443,1.326050,-2.990723,0.897217,-13.301239,1,4,1,1,2,50.000000
2024-12-17 13:56:50.629,0.7687945330167062,0.6818880887243711,0.6469384099154284,0.7059318949753116,0.5261152155673913,0.209800511812856,0.4359747318172971,-0.05082228669651109,0.6211198456092938,0.6218597130478296,0.5325633633039039,0.5934117035402062,0.8978759631949395,0.8522443514538164,0.3835966450701703,0.9163060261040948,0.8939397792696278,0.7366837508691265,0.06825979987833419,0.6126763839361967,864.6886446886447,802.6373626373627,809.4871794871796,819.5604395604396,810.2930402930403,-0.204773,-0.017151,1.148804,4.441223,10.908661,3.820648,1,4,1,1,2,50.000000
2024-12-17 13:56:51.125,0.7687945330167062,0.6818880887243711,0.8562415675988181,0.7059318949753116,0.5261152155673913,0.209800511812856,0.5672740141851719,-0.05082228669651109,0.6211198456092938,0.6218597130478296,0.5535030060925048,0.5934117035402062,0.8978759631949395,0.8522443514538164,0.4659809846226988,0.9163060261040948,0.8939397792696278,0.7366837508691265,0.1592439413943501,0.6126763839361967,813.919413919414,813.5164835164835,809.4871794871796,822.7838827838829,724.8717948717949,-0.133423,0.014343,0.856079,-1.450500,2.265472,-8.463745,1,2,1,1,2,50.000000
2024-12-17 13:56:51.299,,,,,,,,,,,,,,,,,,,,,,,,,,,,,,,,,,,,,,/muse/elements/blink
2024-12-17 13:56:51.640,0.7687945330167062,1.029633003272461,1.015339936135754,0.7059318949753116,0.5261152155673913,0.3896672520674425,0.5232278181456689,-0.05082228669651109,0.6211198456092938,0.6800292835382264,0.5875334432565001,0.5934117035402062,0.8978759631949395,0.4459563568488578,0.458958798728656,0.9163060261040948,0.8939397792696278,0.1320209328149657,0.1399736795058795,0.6126763839361967,842.5274725274726,799.4139194139194,788.5347985347986,782.0879120879121,694.2490842490843,-0.145081,-0.005676,0.900696,7.566528,-4.276733,5.802002,1,4,1,1,2,50.000000
2024-12-17 13:56:52.125,0.7687945330167062,0.9967644906528037,1.009093465149554,0.7059318949753116,0.5261152155673913,0.4483957255522105,0.5539901413078381,-0.05082228669651109,0.6211198456092938,0.6801627296449808,0.5866303217180682,0.5934117035402062,0.8978759631949395,0.453754522883699,0.4511525267215562,0.9163060261040948,0.8939397792696278,0.1603428943766416,0.1478821762078961,0.6126763839361967,708.7545787545788,775.2380952380953,797.8021978021978,801.4285714285714,811.0989010989011,-0.081238,0.069458,0.820312,2.646790,-12.815247,-7.140350,1,4,1,1,2,50.000000
2024-12-17 13:56:52.241,,,,,,,,,,,,,,,,,,,,,,,,,,,,,,,,,,,,,,/muse/elements/blink
2024-12-17 13:56:52.625,0.7687945330167062,0.9357968752096008,1.00832908998428,0.7059318949753116,0.5261152155673913,0.4075447746775208,0.5252409114257601,-0.05082228669651109,0.6211198456092938,0.5039766844014145,0.5388604394232795,0.5934117035402062,0.8978759631949395,0.4032184056867844,0.4476450356989723,0.9163060261040948,0.8939397792696278,0.1784230973755514,0.1014063352730717,0.6126763839361967,832.8571428571429,803.4432234432235,791.3553113553114,840.1098901098901,759.92673992674,-0.032654,-0.139221,0.791565,2.003784,-13.779755,3.865509,1,4,1,1,2,50.000000
2024-12-17 13:56:52.765,,,,,,,,,,,,,,,,,,,,,,,,,,,,,,,,,,,,,,/muse/elements/blink
2024-12-17 13:56:53.131,0.7687945330167062,0.7130143722792733,1.082087430304415,0.7059318949753116,0.5261152155673913,0.4487419901508093,0.5077383357653967,-0.05082228669651109,0.6211198456092938,0.4592456399262253,0.4822140217408569,0.5934117035402062,0.8978759631949395,0.4267201881682797,0.4191793651651582,0.9163060261040948,0.8939397792696278,0.2192562935345012,0.1076972534409342,0.6126763839361967,885.2380952380953,781.2820512820513,813.1135531135532,790.952380952381,729.3040293040293,-0.143860,0.099487,0.880737,14.198456,2.325287,15.716248,1,4,1,1,2,45.000000
2024-12-17 13:56:53.541,,,,,,,,,,,,,,,,,,,,,,,,,,,,,,,,,,,,,,/muse/elements/blink
2024-12-17 13:56:53.625,0.7687945330167062,0.7130143722792733,1.082087430304415,0.7059318949753116,0.5261152155673913,0.4487419901508093,0.5077383357653967,-0.05082228669651109,0.6211198456092938,0.4592456399262253,0.4822140217408569,0.5934117035402062,0.8978759631949395,0.4267201881682797,0.4191793651651582,0.9163060261040948,0.8939397792696278,0.2192562935345012,0.1076972534409342,0.6126763839361967,902.5641025641025,819.96336996337,788.9377289377289,836.4835164835165,786.1172161172161,-0.396362,0.025574,1.154724,-7.177734,0.725250,-2.841187,1,2,1,1,2,45.000000
2024-12-17 13:56:54.127,0.7687945330167062,1.137879264241031,0.9360525652153714,0.7059318949753116,0.5261152155673913,0.5191089914001235,0.3302473199153274,-0.05082228669651109,0.6211198456092938,0.3189715851288286,0.256134824226549,0.5934117035402062,0.8978759631949395,0.7909805671183316,0.4619806936190589,0.9163060261040948,0.8939397792696278,0.7922796150948197,0.2612185238600326,0.6126763839361967,975.0915750915751,807.0695970695971,814.7252747252747,819.1575091575091,638.2417582417582,-0.224487,0.279480,1.341614,9.869385,-25.428619,0.934601,1,2,1,1,2,45.000000
2024-12-17 13:56:54.342,,,,,,,,,,,,,,,,,,,,,,,,,,,,,,,,,,,,,,/muse/elements/blink
2024-12-17 13:56:54.633,0.7687945330167062,1.132396223953553,0.9124871412407598,0.7059318949753116,0.5261152155673913,0.3566825142276639,0.3385505688126248,-0.05082228669651109,0.6211198456092938,0.5955544241650322,0.2695807954133438,0.5934117035402062,0.8978759631949395,0.8575039925714646,0.4052138472662894,0.9163060261040948,0.8939397792696278,0.6224967032822969,0.2034148090980572,0.6126763839361967,346.5201465201465,811.5018315018315,797.3992673992674,835.6776556776557,885.6410256410256,-0.104980,0.133301,1.131653,1.622467,-1.951447,6.781464,1,4,1,1,2,45.000000
2024-12-17 13:56:55.125,0.7687945330167062,1.155312555569848,0.7959096492405933,0.7059318949753116,0.5261152155673913,0.1707665506546495,0.1022663604194293,-0.05082228669651109,0.6211198456092938,0.6015463533069885,0.2567375786852776,0.5934117035402062,0.8978759631949395,0.926937833015285,0.409088826764809,0.9163060261040948,0.8939397792696278,0.4697398949297826,0.1161309465878384,0.6126763839361967,724.8717948717949,807.8754578754579,800.2197802197802,796.5934065934066,657.1794871794872,-0.191895,0.099670,1.098511,3.058014,-0.785065,-4.740295,1,4,1,1,2,45.000000
2024-12-17 13:56:55.625,0.7687945330167062,1.080728161708287,0.6353032575495318,0.7059318949753116,0.5261152155673913,0.07910839612141239,0.1301835641576029,-0.05082228669651109,0.6211198456092938,0.5325637955720111,0.3528304121683059,0.5934117035402062,0.8978759631949395,0.8299623559471988,0.3680620063152274,0.9163060261040948,0.8939397792696278,0.2123725879451063,-0.06505875521457365,0.6126763839361967,761.5384615384615,795.3846153846154,811.9047619047619,780.8791208791209,621.3186813186813,-0.048218,0.310181,1.014038,11.962891,-3.843079,1.413116,1,4,1,1,2,45.000000
2024-12-17 13:56:56.125,0.7687945330167062,1.085747389909789,0.4655831550073482,0.7059318949753116,0.5261152155673913,0.1368397766731601,0.3255830632153437,-0.05082228669651109,0.6211198456092938,0.4792454377684728,0.3798821648458975,0.5934117035402062,0.8978759631949395,0.7743121735862691,0.4128484492347395,0.9163060261040948,0.8939397792696278,0.2044222973747491,-0.05355252890560992,0.6126763839361967,837.6923076923077,794.1758241758242,815.934065934066,831.6483516483516,750.2564102564103,-0.062134,-0.067688,0.933105,-10.288086,-0.844879,-36.120453,1,4,1,1,2,45.000000
2024-12-17 13:56:56.512,,,,,,,,,,,,,,,,,,,,,,,,,,,,,,,,,,,,,,/muse/elements/blink
2024-12-17 13:56:56.625,0.7687945330167062,0.6943873549905726,0.3851958693801435,0.7059318949753116,0.5261152155673913,0.3469017688796688,0.3961759989800342,-0.05082228669651109,0.6211198456092938,0.2223944762722701,0.7311381124580453,0.5934117035402062,0.8978759631949395,0.7254719471045717,0.5311852157735706,0.9163060261040948,0.8939397792696278,0.4546997247200828,0.1512381917775336,0.6126763839361967,838.901098901099,791.3553113553114,816.3369963369963,838.4981684981685,821.978021978022,-0.015503,-0.089600,0.854736,16.912537,15.589142,29.346466,1,4,1,1,2,45.000000
2024-12-17 13:56:57.125,0.7687945330167062,0.4548282670293856,0.6803266620389138,0.7059318949753116,0.5261152155673913,0.1914834022762596,0.6451578784209434,-0.05082228669651109,0.6211198456092938,0.3525759923988284,1.034089260966207,0.5934117035402062,0.8978759631949395,0.5895437002767421,0.5456261568982911,0.9163060261040948,0.8939397792696278,0.3353020654560565,0.299616563788061,0.6126763839361967,837.6923076923077,804.6520146520147,789.7435897435897,809.0842490842491,717.2161172161173,-0.115234,-0.011108,0.850769,11.753540,-6.938477,48.479614,1,2,1,1,2,45.000000
2024-12-17 13:56:57.635,0.7687945330167062,0.4892260409951915,0.8636825231071096,0.7059318949753116,0.5261152155673913,0.1452114077410457,0.6342263221163553,-0.05082228669651109,0.6211198456092938,0.3733720019978402,1.034089260966207,0.5934117035402062,0.8978759631949395,0.5681630539882292,0.5365662405919143,0.9163060261040948,0.8939397792696278,0.2971244019352926,0.3402830056961893,0.6126763839361967,815.5311355311355,807.8754578754579,793.3699633699634,838.0952380952381,799.8168498168499,-0.106812,0.286133,1.038696,-5.899200,-16.860199,1.226196,1,4,1,1,2,45.000000
2024-12-17 13:56:58.125,0.7687945330167062,0.4565625905702929,0.9736437074242781,0.7059318949753116,0.5261152155673913,-0.08382244479708693,0.772018205424317,-0.05082228669651109,0.6211198456092938,0.3342466122789942,1.034089260966207,0.5934117035402062,0.8978759631949395,0.3911034373414621,0.4647139811413886,0.9163060261040948,0.8939397792696278,0.1357091504705734,0.344909846199553,0.6126763839361967,859.8534798534798,779.2673992673992,809.4871794871796,823.1868131868132,675.7142857142858,-0.207214,0.028625,0.923401,2.272949,-6.482391,-3.043060,1,4,1,1,2,45.000000
2024-12-17 13:56:58.626,0.7687945330167062,0.5093973481975296,1.013217068929199,0.7059318949753116,0.5261152155673913,-0.09606019642799386,0.5051208140661301,-0.05082228669651109,0.6211198456092938,0.2689554819283491,0.756028121681718,0.5934117035402062,0.8978759631949395,0.4045805912376075,0.2457101056642693,0.9163060261040948,0.8939397792696278,0.07405260693525401,0.002205250805253295,0.6126763839361967,955.3479853479854,826.8131868131868,789.7435897435897,798.6080586080586,729.7069597069598,-0.335083,0.157593,1.250122,4.254303,-1.487885,0.485992,1,2,1,1,2,45.000000
2024-12-17 13:56:59.125,0.7687945330167062,0.5093973481975296,1.013217068929199,1.666577628238494,0.5261152155673913,-0.09606019642799386,0.5051208140661301,1.293345531888174,0.6211198456092938,0.2689554819283491,0.756028121681718,1.223237085970544,0.8978759631949395,0.4045805912376075,0.2457101056642693,1.50186458145881,0.8939397792696278,0.07405260693525401,0.002205250805253295,1.030857771145124,871.1355311355312,817.5457875457876,796.5934065934066,778.0586080586081,715.2014652014652,-0.193542,-0.016296,1.107178,0.403748,-5.637512,2.519684,1,4,1,1,1,45.000000
2024-12-17 13:56:59.441,,,,,,,,,,,,,,,,,,,,,,,,,,,,,,,,,,,,,,/muse/elements/blink
2024-12-17 13:56:59.625,0.7687945330167062,0.5093973481975296,1.013217068929199,1.666577628238494,0.5261152155673913,-0.09606019642799386,0.5051208140661301,1.293345531888174,0.6211198456092938,0.2689554819283491,0.756028121681718,1.223237085970544,0.8978759631949395,0.4045805912376075,0.2457101056642693,1.50186458145881,0.8939397792696278,0.07405260693525401,0.002205250805253295,1.030857771145124,757.9120879120879,790.5494505494506,794.1758241758242,842.9304029304029,811.5018315018315,-0.459961,0.123108,1.195068,-1.585083,5.517883,-6.983337,1,4,1,1,1,45.000000
2024-12-17 13:56:59.655,,,,,,,,,,,,,,,,,,,,,,,,,,,,,,,,,,,,,,/muse/elements/blink
2024-12-17 13:57:00.125,0.7687945330167062,0.5093973481975296,0.9085904560662378,1.557179923512424,0.5261152155673913,-0.09606019642799386,0.5023376675316793,1.265685740278722,0.6211198456092938,0.2689554819283491,0.4492325294180523,1.099286108816223,0.8978759631949395,0.4045805912376075,0.4924355275954564,1.515461571418317,0.8939397792696278,0.07405260693525401,0.08131312796282714,1.082751533487166,815.5311355311355,794.5787545787546,785.7142857142858,886.4468864468864,782.0879120879121,-0.202576,0.127563,0.913086,5.742188,6.325378,-4.964600,1,2,1,1,1,45.000000
2024-12-17 13:57:00.154,,,,,,,,,,,,,,,,,,,,,,,,,,,,,,,,,,,,,,/muse/elements/blink
2024-12-17 13:57:00.631,0.7687945330167062,0.5093973481975296,0.9417055539224978,1.557179923512424,0.5261152155673913,-0.09606019642799386,0.7282344834835389,1.265685740278722,0.6211198456092938,0.2689554819283491,0.5915896692885211,1.099286108816223,0.8978759631949395,0.4045805912376075,0.4610602484330048,1.515461571418317,0.8939397792696278,0.07405260693525401,0.07040475625015659,1.082751533487166,865.0915750915751,787.7289377289378,797.3992673992674,840.1098901098901,711.978021978022,-0.132507,0.062317,0.909119,5.278625,0.583191,-4.089813,1,2,1,1,1,45.000000
2024-12-17 13:57:01.125,0.7687945330167062,0.5093973481975296,0.9802720948694734,1.557179923512424,0.5261152155673913,-0.09606019642799386,0.7341724558929752,1.265685740278722,0.6211198456092938,0.2689554819283491,0.5967840621141246,1.099286108816223,0.8978759631949395,0.4045805912376075,0.4311874577366385,1.515461571418317,0.8939397792696278,0.07405260693525401,0.05685783347479566,1.082751533487166,791.7582417582418,780.8791208791209,805.4578754578755,823.1868131868132,651.5384615384615,-0.124146,0.059021,0.729431,1.263580,16.478882,-3.917847,1,2,1,1,1,45.000000
2024-12-17 13:57:01.625,0.7687945330167062,0.5093973481975296,0.9494660441265287,1.557179923512424,0.5261152155673913,-0.09606019642799386,0.7076696333212021,1.265685740278722,0.6211198456092938,0.2689554819283491,0.6429022863428101,1.099286108816223,0.8978759631949395,0.4045805912376075,0.4060111163046652,1.515461571418317,0.8939397792696278,0.07405260693525401,-0.0275148913344808,1.082751533487166,837.6923076923077,794.1758241758242,805.8608058608058,858.6446886446887,637.4358974358975,-0.110046,0.054565,0.730713,12.755432,-24.658508,15.581665,1,2,1,1,1,45.000000
2024-12-17 13:57:01.668,,,,,,,,,,,,,,,,,,,,,,,,,,,,,,,,,,,,,,/muse/elements/blink
2024-12-17 13:57:02.125,0.7687945330167062,0.5093973481975296,0.9933563947760345,1.557179923512424,0.5261152155673913,-0.09606019642799386,0.7217060628940862,1.265685740278722,0.6211198456092938,0.2689554819283491,0.6102265354306977,1.099286108816223,0.8978759631949395,0.4045805912376075,0.3285687440955215,1.515461571418317,0.8939397792696278,0.07405260693525401,-0.1003688216905062,1.082751533487166,788.1318681318681,805.4578754578755,795.3846153846154,799.8168498168499,777.6556776556777,-0.092468,0.079041,0.862671,-4.456177,-22.176208,-4.172058,1,2,1,1,2,45.000000
2024-12-17 13:57:02.626,0.7687945330167062,1.113805937723161,0.9162598780866855,1.557179923512424,0.5261152155673913,0.6977520534908175,0.6778982012086066,1.265685740278722,0.6211198456092938,0.7603128022304144,0.6387566150603223,1.099286108816223,0.8978759631949395,0.7447162905212813,0.2553456728975718,1.515461571418317,0.8939397792696278,0.4488260826296672,-0.1876056357412834,1.082751533487166,779.6703296703297,817.5457875457876,792.5641025641025,765.9706959706959,813.5164835164835,-0.148010,-0.094055,0.867432,1.570129,-14.467621,1.891632,1,2,1,1,2,45.000000
2024-12-17 13:57:02.790,,,,,,,,,,,,,,,,,,,,,,,,,,,,,,,,,,,,,,/muse/elements/blink
2024-12-17 13:57:03.112,,,,,,,,,,,,,,,,,,,,,,,,,,,,,,,,,,,,,,/muse/elements/blink
2024-12-17 13:57:03.126,0.7687945330167062,1.054835905124178,0.9119408122482588,1.557179923512424,0.5261152155673913,0.7793543656667585,0.7100580519206948,1.265685740278722,0.6211198456092938,0.7764114294561554,0.7106429439206451,1.099286108816223,0.8978759631949395,0.8300030693857453,0.1486859044400439,1.515461571418317,0.8939397792696278,0.4655604500448084,-0.1319972945774598,1.082751533487166,887.6556776556777,736.1538461538462,766.3736263736264,805.0549450549451,639.047619047619,-0.160583,0.107605,0.931152,0.672913,2.871094,-7.618866,1,2,1,1,2,50.000000
2024-12-17 13:57:03.281,,,,,,,,,,,,,,,,,,,,,,,,,,,,,,,,,,,,,,/muse/elements/blink
2024-12-17 13:57:03.626,0.7687945330167062,0.9705962965945704,0.8841338876790231,1.557179923512424,0.5261152155673913,0.8312109792962684,0.6894284819501447,1.265685740278722,0.6211198456092938,0.7717558138497277,0.8117296963155822,1.099286108816223,0.8978759631949395,0.8570331677106009,0.5896144382195834,1.515461571418317,0.8939397792696278,0.4451022664378826,0.5994895891981008,1.082751533487166,844.9450549450549,775.2380952380953,813.5164835164835,788.9377289377289,610.0366300366301,-0.263245,0.004700,1.149292,1.876678,11.932983,-1.084137,1,2,1,1,2,50.000000
2024-12-17 13:57:04.124,0.7687945330167062,0.8884611922318674,0.9233240435568411,1.557179923512424,0.5261152155673913,0.8742808358743741,0.7257466390721312,1.265685740278722,0.6211198456092938,0.7628856369469862,0.810610533863396,1.099286108816223,0.8978759631949395,0.8908412262688428,0.7118023819658249,1.515461571418317,0.8939397792696278,0.4880697472564721,0.7515720273971804,1.082751533487166,635.8241758241759,808.6813186813187,821.978021978022,721.2454212454213,805.8608058608058,-0.328796,0.056946,1.272949,1.368256,16.217194,-4.246826,1,2,1,1,2,50.000000
2024-12-17 13:57:04.332,,,,,,,,,,,,,,,,,,,,,,,,,,,,,,,,,,,,,,/muse/elements/blink
2024-12-17 13:57:04.625,0.7687945330167062,0.8884611922318674,0.9437185659481288,1.557179923512424,0.5261152155673913,0.8742808358743741,0.7445500400539771,1.265685740278722,0.6211198456092938,0.7628856369469862,0.7411409007109589,1.099286108816223,0.8978759631949395,0.8908412262688428,0.7978363936775017,1.515461571418317,0.8939397792696278,0.4880697472564721,0.8241866203161412,1.082751533487166,664.8351648351648,795.3846153846154,807.8754578754579,826.8131868131868,727.6923076923077,-0.223145,0.152954,1.082336,5.996399,9.375916,8.209534,1,2,1,1,2,50.000000
2024-12-17 13:57:05.127,0.7687945330167062,0.8884611922318674,0.7577766989715604,1.557179923512424,0.5261152155673913,0.8742808358743741,0.5994382508176412,1.265685740278722,0.6211198456092938,0.7628856369469862,0.5271414007798616,1.099286108816223,0.8978759631949395,0.8908412262688428,0.5816560322561271,1.515461571418317,0.8939397792696278,0.4880697472564721,0.3131966226448152,1.082751533487166,844.1391941391942,792.967032967033,807.8754578754579,816.7399267399268,852.6007326007326,-0.233154,0.072815,0.953369,6.123505,-9.622650,-10.168457,1,2,1,1,2,50.000000
2024-12-17 13:57:05.626,0.7687945330167062,0.8884611922318674,0.8051018746316592,1.557179923512424,0.5261152155673913,0.8742808358743741,0.6359581208625517,1.265685740278722,0.6211198456092938,0.7628856369469862,0.5351222572018722,1.099286108816223,0.8978759631949395,0.8908412262688428,0.6106575058987528,1.515461571418317,0.8939397792696278,0.4880697472564721,0.3526675081732682,1.082751533487166,762.7472527472528,810.2930402930403,803.8461538461539,814.7252747252747,705.5311355311355,-0.087585,0.109314,0.840393,13.368530,0.837402,-72.794189,1,2,1,1,2,50.000000
2024-12-17 13:57:05.906,,,,,,,,,,,,,,,,,,,,,,,,,,,,,,,,,,,,,,/muse/elements/jaw_clench
2024-12-17 13:57:06.125,0.7687945330167062,0.8884611922318674,0.8416450096569239,1.557179923512424,0.5261152155673913,0.8742808358743741,0.681018441734914,1.265685740278722,0.6211198456092938,0.7628856369469862,0.7147542273670876,1.099286108816223,0.8978759631949395,0.8908412262688428,0.6651337907891848,1.515461571418317,0.8939397792696278,0.4880697472564721,0.3376984830046572,1.082751533487166,1271.245421245421,762.3443223443223,822.3809523809524,841.7216117216118,682.1611721611722,-0.211914,0.263367,0.833923,64.532318,-11.888123,-119.449463,1,2,1,1,2,50.000000
2024-12-17 13:57:06.161,,,,,,,,,,,,,,,,,,,,,,,,,,,,,,,,,,,,,,/muse/elements/jaw_clench
2024-12-17 13:57:06.625,0.7687945330167062,0.8884611922318674,1.065984617812845,1.557179923512424,0.5261152155673913,0.8742808358743741,0.980837998706052,1.265685740278722,0.6211198456092938,0.7628856369469862,0.7485938342969242,1.099286108816223,0.8978759631949395,0.8908412262688428,0.8505021353534251,1.515461571418317,0.8939397792696278,0.4880697472564721,0.4885574669898156,1.082751533487166,730.1098901098901,805.4578754578755,805.4578754578755,794.1758241758242,789.3406593406594,-0.228699,0.360657,1.026245,30.109100,-18.101349,-77.788696,1,2,1,1,2,50.000000
2024-12-17 13:57:07.032,,,,,,,,,,,,,,,,,,,,,,,,,,,,,,,,,,,,,,/muse/elements/jaw_clench
2024-12-17 13:57:07.126,0.7687945330167062,0.8884611922318674,1.067095916397168,1.557179923512424,0.5261152155673913,0.8742808358743741,1.058589824633348,1.265685740278722,0.6211198456092938,0.7628856369469862,0.7152682808834637,1.099286108816223,0.8978759631949395,0.8908412262688428,0.8336909038663702,1.515461571418317,0.8939397792696278,0.4880697472564721,0.5515625071645484,1.082751533487166,719.2307692307693,799.8168498168499,827.2161172161173,760.3296703296703,787.3260073260074,-0.206848,0.113708,1.050354,11.147919,-7.850647,-8.590851,1,4,1,1,2,50.000000
