TimeStamp,Delta_TP9,Delta_AF7,Delta_AF8,Delta_TP10,Theta_TP9,Theta_AF7,Theta_AF8,Theta_TP10,Alpha_TP9,Alpha_AF7,Alpha_AF8,Alpha_TP10,Beta_TP9,Beta_AF7,Beta_AF8,Beta_TP10,Gamma_TP9,Gamma_AF7,Gamma_AF8,Gamma_TP10,RAW_TP9,RAW_AF7,RAW_AF8,RAW_TP10,AUX_RIGHT,Accelerometer_X,Accelerometer_Y,Accelerometer_Z,Gyro_X,Gyro_Y,Gyro_Z,HeadBandOn,HSI_TP9,HSI_AF7,HSI_AF8,HSI_TP10,Battery,Elements
2024-11-24 16:10:34.024,,,,,,,,,,,,,,,,,,,,,,,,,,,,,,,,,,,,,,/muse/event/connected Muse-D2D3
2024-11-24 16:10:34.099,,,,,,,,,,,,,,,,,,,,,,,,,,,,,,,,,,,,,,/muse/elements/blink
2024-11-24 16:10:34.535,0.1070663602591028,1.041576060036971,0.9427839766246046,0.5009513259694072,0.5956375960178184,0.5494622300150751,0.9056142544414625,0.4855813487644119,0.9604086601026615,0.4953936385845262,0.828686775641851,0.9263328176314308,0.7052344109432481,0.1809116806770197,0.2177709545350635,0.9662085344223323,0.4869682900192567,-0.2866804755197918,-0.3394132496290452,0.7426336560516036,793.3699633699634,798.6080586080586,805.8608058608058,801.8315018315019,730.9157509157509,-0.330811,0.181274,0.940369,2.407532,-0.119629,-1.143951,1,2,1,1,2,80.000000
2024-11-24 16:10:34.854,,,,,,,,,,,,,,,,,,,,,,,,,,,,,,,,,,,,,,/muse/elements/blink
2024-11-24 16:10:35.028,0.1070663602591028,0.974709786382618,0.9275353072181964,0.5009513259694072,0.5956375960178184,0.5162557927652047,0.8686423783333171,0.4855813487644119,0.9604086601026615,0.5303223518258573,0.836377493320332,0.9263328176314308,0.7052344109432481,0.2992045715518878,0.1727305539302869,0.9662085344223323,0.4869682900192567,-0.215479245156075,-0.2916169796115934,0.7426336560516036,843.7362637362637,802.6373626373627,802.2344322344322,824.7985347985348,693.4432234432235,-0.338867,0.185547,0.939758,1.659851,-0.157013,0.770111,1,2,1,1,2,80.000000
2024-11-24 16:10:35.525,0.1070663602591028,1.08026521039701,1.177761085198669,0.5009513259694072,0.5956375960178184,0.8142025059741828,1.108332965402478,0.4855813487644119,0.9604086601026615,0.7878992265588112,0.8855919938264947,0.9263328176314308,0.7052344109432481,0.3561880922134184,0.217593505400641,0.9662085344223323,0.4869682900192567,-0.1949870587234235,-0.1786835497470501,0.7426336560516036,799.4139194139194,782.893772893773,787.7289377289378,819.96336996337,923.5164835164835,-0.386963,0.197205,0.922424,5.532837,4.321594,-6.669312,1,2,1,1,2,80.000000
2024-11-24 16:10:35.601,,,,,,,,,,,,,,,,,,,,,,,,,,,,,,,,,,,,,,/muse/elements/blink
2024-11-24 16:10:36.030,0.1070663602591028,1.143140558919556,1.204616498366088,0.5009513259694072,0.5956375960178184,1.10682403643926,1.114262126490797,0.4855813487644119,0.9604086601026615,0.8736767470296199,0.7281248499995825,0.9263328176314308,0.7052344109432481,0.4202052385093368,0.1638074808813214,0.9662085344223323,0.4869682900192567,-0.2022728252809343,-0.1418365949695728,0.7426336560516036,826.4102564102565,805.8608058608058,807.8754578754579,835.2747252747253,790.952380952381,-0.414734,0.194214,0.909363,2.923431,4.022522,-1.502838,1,2,1,1,2,80.000000
2024-11-24 16:10:36.550,0.1070663602591028,1.147042930396729,1.387955541726259,0.5009513259694072,0.5956375960178184,1.130981949917781,1.303092051531677,0.4855813487644119,0.9604086601026615,0.8693452021720358,0.7130906642619389,0.9263328176314308,0.7052344109432481,0.3952768882565589,0.2649921342836141,0.9662085344223323,0.4869682900192567,-0.205135240369005,-0.08976008061539857,0.7426336560516036,801.025641025641,797.8021978021978,799.0109890109891,789.7435897435897,608.021978021978,-0.434814,0.183105,0.895142,1.585083,-3.753357,1.502838,1,2,1,1,2,80.000000
2024-11-24 16:10:37.021,,,,,,,,,,,,,,,,,,,,,,,,,,,,,,,,,,,,,,/muse/elements/blink
2024-11-24 16:10:37.033,0.1070663602591028,1.029502284714936,0.1183112597304074,0.5009513259694072,0.5956375960178184,1.018446517397042,0.03131281622289972,0.4855813487644119,0.9604086601026615,0.8799915196587849,0.1301144536454854,0.9263328176314308,0.7052344109432481,0.3975899133575275,-0.1371671420322349,0.9662085344223323,0.4869682900192567,-0.1191972089628533,-0.2136635237727989,0.7426336560516036,849.3772893772895,805.4578754578755,800.6227106227107,848.974358974359,834.0659340659341,-0.397888,0.175659,0.913879,4.149628,-3.222504,-0.269165,1,2,1,1,2,80.000000
2024-11-24 16:10:37.432,,,,,,,,,,,,,,,,,,,,,,,,,,,,,,,,,,,,,,/muse/elements/blink
2024-11-24 16:10:37.530,0.1070663602591028,0.830621713534158,0.1183112597304074,0.5009513259694072,0.5956375960178184,0.6708604307658597,0.03131281622289972,0.4855813487644119,0.9604086601026615,0.9679773573736679,0.1301144536454854,0.9263328176314308,0.7052344109432481,0.3848424880093781,-0.1371671420322349,0.9662085344223323,0.4869682900192567,-0.01539259351541082,-0.2136635237727989,0.7426336560516036,813.919413919414,796.1904761904763,806.2637362637363,818.7545787545788,702.7106227106227,-0.412415,0.176758,0.914734,2.310333,-2.160797,-1.248627,1,2,1,1,2,80.000000
2024-11-24 16:10:38.025,0.1070663602591028,0.8931730085927105,0.1183112597304074,0.5009513259694072,0.5956375960178184,0.6495845276498037,0.03131281622289972,0.4855813487644119,0.9604086601026615,0.9633426846722958,0.1301144536454854,0.9263328176314308,0.7052344109432481,0.4054896454717516,-0.1371671420322349,0.9662085344223323,0.4869682900192567,0.005131497223424125,-0.2136635237727989,0.7426336560516036,796.5934065934066,790.5494505494506,799.8168498168499,802.2344322344322,693.8461538461538,-0.410339,0.182312,0.911987,1.659851,-0.388794,1.719666,1,2,1,1,2,80.000000
2024-11-24 16:10:38.527,0.1070663602591028,0.9741391567504709,0.1183112597304074,0.5009513259694072,0.5956375960178184,0.6469120875301932,0.03131281622289972,0.4855813487644119,0.9604086601026615,0.9633426846722958,0.1301144536454854,0.9263328176314308,0.7052344109432481,0.3392077393945115,-0.1371671420322349,0.9662085344223323,0.4869682900192567,0.01733232203242943,-0.2136635237727989,0.7426336560516036,810.2930402930403,816.7399267399268,805.4578754578755,810.6959706959707,902.1611721611722,-0.410706,0.170898,0.911194,2.011261,-0.530853,0.216827,1,2,1,1,2,80.000000
2024-11-24 16:10:38.912,,,,,,,,,,,,,,,,,,,,,,,,,,,,,,,,,,,,,,/muse/elements/blink
2024-11-24 16:10:39.025,0.1070663602591028,0.8300403819194314,0.5043390113177481,0.5009513259694072,0.5956375960178184,0.350661051852768,0.4616344223113589,0.4855813487644119,0.9604086601026615,0.7692163017946245,0.5140448424597148,0.9263328176314308,0.7052344109432481,0.2750693703014028,-0.01505920811358436,0.9662085344223323,0.4869682900192567,-0.06756212206197422,-0.3528257602877654,0.7426336560516036,797.3992673992674,802.6373626373627,799.4139194139194,784.1025641025641,1491.648351648352,-0.557861,0.185547,0.849915,6.347809,-11.783447,8.493652,1,2,1,1,2,80.000000
2024-11-24 16:10:39.525,0.1070663602591028,0.6957051987943352,0.8423653277702303,0.5009513259694072,0.5956375960178184,0.2422123418477159,0.7444617115570801,0.4855813487644119,0.9604086601026615,0.5211268612270861,0.8143287711519497,0.9263328176314308,0.7052344109432481,0.1817495038011961,-0.02146968538805669,0.9662085344223323,0.4869682900192567,-0.0941941208251561,-0.3630937983361711,0.7426336560516036,890.4761904761905,788.5347985347986,775.6410256410256,876.7765567765568,430.7326007326008,-0.405762,0.097046,0.862732,11.686249,-4.127197,5.525360,1,2,1,1,2,80.000000
2024-11-24 16:10:39.541,,,,,,,,,,,,,,,,,,,,,,,,,,,,,,,,,,,,,,/muse/elements/blink
2024-11-24 16:10:40.025,0.1070663602591028,0.6523236843273009,0.8999639921085908,0.5009513259694072,0.5956375960178184,0.1991652993920202,0.7973629441546973,0.4855813487644119,0.9604086601026615,0.4295053178679277,0.8143287711519497,0.9263328176314308,0.7052344109432481,0.1291131483860826,-0.0370014230404242,0.9662085344223323,0.4869682900192567,-0.1130427940298334,-0.3765235524150747,0.7426336560516036,804.2490842490843,794.981684981685,796.5934065934066,783.6996336996338,722.4542124542124,-0.495728,0.235474,1.072998,4.598236,-3.955231,10.504913,1,2,1,1,2,80.000000
2024-11-24 16:10:40.241,,,,,,,,,,,,,,,,,,,,,,,,,,,,,,,,,,,,,,/muse/elements/blink
2024-11-24 16:10:40.528,0.1070663602591028,0.8439332083304145,1.066359421837346,0.5009513259694072,0.5956375960178184,0.3826091290040521,0.9443564034560225,0.4855813487644119,0.9604086601026615,0.4295053178679277,0.8143287711519497,0.9263328176314308,0.7052344109432481,0.1374405917553549,-0.1077846456266012,0.9662085344223323,0.4869682900192567,-0.1008341073917247,-0.4282632175279415,0.7426336560516036,842.9304029304029,802.2344322344322,798.2051282051282,820.3663003663004,519.3772893772893,-0.476257,0.180908,0.868164,-6.273041,11.409607,-6.250610,1,2,1,1,2,80.000000
2024-11-24 16:10:41.045,0.1070663602591028,0.8460425184784123,1.066359421837346,0.5009513259694072,0.5956375960178184,0.3432388259263535,0.9443564034560225,0.4855813487644119,0.9604086601026615,0.4138682828514977,0.8143287711519497,0.9263328176314308,0.7052344109432481,0.1851743866046969,-0.1077846456266012,0.9662085344223323,0.4869682900192567,-0.06871148697175196,-0.4282632175279415,0.7426336560516036,883.2234432234433,795.7875457875458,788.9377289377289,891.6849816849817,605.2014652014652,-0.280273,0.117554,0.615112,13.241425,-3.581390,0.523376,1,2,1,1,2,80.000000
2024-11-24 16:10:41.192,,,,,,,,,,,,,,,,,,,,,,,,,,,,,,,,,,,,,,/muse/elements/blink
2024-11-24 16:10:41.531,0.1070663602591028,0.8460425184784123,1.066359421837346,0.5009513259694072,0.5956375960178184,0.3432388259263535,0.9443564034560225,0.4855813487644119,0.9604086601026615,0.4138682828514977,0.8143287711519497,0.9263328176314308,0.7052344109432481,0.1851743866046969,-0.1077846456266012,0.9662085344223323,0.4869682900192567,-0.06871148697175196,-0.4282632175279415,0.7426336560516036,827.2161172161173,796.1904761904763,811.5018315018315,868.7179487179487,1273.663003663004,-0.233887,0.060791,0.546997,0.089722,-3.237457,-19.783630,1,2,1,1,2,80.000000
2024-11-24 16:10:41.894,,,,,,,,,,,,,,,,,,,,,,,,,,,,,,,,,,,,,,/muse/elements/blink
2024-11-24 16:10:42.025,0.1070663602591028,0.8460425184784123,1.066359421837346,0.5009513259694072,0.5956375960178184,0.3432388259263535,0.9443564034560225,0.4855813487644119,0.9604086601026615,0.4138682828514977,0.8143287711519497,0.9263328176314308,0.7052344109432481,0.1851743866046969,-0.1077846456266012,0.9662085344223323,0.4869682900192567,-0.06871148697175196,-0.4282632175279415,0.7426336560516036,804.2490842490843,809.0842490842491,805.4578754578755,721.2454212454213,759.92673992674,-0.240601,0.154785,0.633972,20.209808,-7.334747,9.936676,1,2,1,1,2,80.000000
2024-11-24 16:10:42.481,,,,,,,,,,,,,,,,,,,,,,,,,,,,,,,,,,,,,,/muse/elements/blink
2024-11-24 16:10:42.525,0.1070663602591028,1.179427741089993,1.066359421837346,0.5009513259694072,0.5956375960178184,1.101247213685387,0.9443564034560225,0.4855813487644119,0.9604086601026615,0.5798298504318301,0.8143287711519497,0.9263328176314308,0.7052344109432481,0.9228740681760033,-0.1077846456266012,0.9662085344223323,0.4869682900192567,0.6521990243731107,-0.4282632175279415,0.7426336560516036,785.3113553113553,810.6959706959707,807.0695970695971,775.2380952380953,996.4468864468864,-0.413818,0.229919,0.923157,10.467529,-7.065582,-16.351776,1,2,1,1,2,80.000000
2024-11-24 16:10:42.814,,,,,,,,,,,,,,,,,,,,,,,,,,,,,,,,,,,,,,/muse/elements/blink
2024-11-24 16:10:43.028,0.1070663602591028,1.103753931340204,1.066359421837346,0.5009513259694072,0.5956375960178184,1.031484430248033,0.9443564034560225,0.4855813487644119,0.9604086601026615,0.5931098687195304,0.8143287711519497,0.9263328176314308,0.7052344109432481,1.001045096039811,-0.1077846456266012,0.9662085344223323,0.4869682900192567,0.7182899618965555,-0.4282632175279415,0.7426336560516036,840.9157509157509,812.3076923076924,805.0549450549451,918.6813186813187,874.3589743589744,-0.413879,0.136108,1.013428,-7.491760,-1.375732,5.360870,1,2,1,1,2,80.000000
2024-11-24 16:10:43.096,,,,,,,,,,,,,,,,,,,,,,,,,,,,,,,,,,,,,,/muse/elements/blink
2024-11-24 16:10:43.518,,,,,,,,,,,,,,,,,,,,,,,,,,,,,,,,,,,,,,/muse/elements/blink
2024-11-24 16:10:43.526,0.1070663602591028,1.103753931340204,1.066359421837346,0.5009513259694072,0.5956375960178184,1.031484430248033,0.9443564034560225,0.4855813487644119,0.9604086601026615,0.5931098687195304,0.8143287711519497,0.9263328176314308,0.7052344109432481,1.001045096039811,-0.1077846456266012,0.9662085344223323,0.4869682900192567,0.7182899618965555,-0.4282632175279415,0.7426336560516036,818.3516483516484,798.2051282051282,811.0989010989011,790.1465201465202,641.4652014652015,-0.414673,0.243896,0.932983,4.456177,14.460144,-8.807678,1,2,1,1,2,75.000000
2024-11-24 16:10:43.706,,,,,,,,,,,,,,,,,,,,,,,,,,,,,,,,,,,,,,/muse/elements/blink
2024-11-24 16:10:44.025,0.1070663602591028,1.020777665095439,1.066359421837346,0.5009513259694072,0.5956375960178184,0.9690522595458327,0.9443564034560225,0.4855813487644119,0.9604086601026615,0.4895176965302567,0.8143287711519497,0.9263328176314308,0.7052344109432481,1.050681773253975,-0.1077846456266012,0.9662085344223323,0.4869682900192567,0.7222312419469741,-0.4282632175279415,0.7426336560516036,832.8571428571429,802.6373626373627,811.5018315018315,809.8901098901099,1212.417582417582,-0.381470,0.148010,0.930176,-5.129089,6.138458,5.286102,1,2,1,1,2,75.000000
2024-11-24 16:10:44.525,0.1070663602591028,1.020777665095439,1.066359421837346,0.5009513259694072,0.5956375960178184,0.9690522595458327,0.9443564034560225,0.4855813487644119,0.9604086601026615,0.4895176965302567,0.8143287711519497,0.9263328176314308,0.7052344109432481,1.050681773253975,-0.1077846456266012,0.9662085344223323,0.4869682900192567,0.7222312419469741,-0.4282632175279415,0.7426336560516036,847.3626373626374,799.8168498168499,809.0842490842491,872.3443223443223,1368.754578754579,-0.370667,0.220154,0.898560,3.267365,3.140259,-6.557159,1,2,1,1,2,75.000000
2024-11-24 16:10:44.936,,,,,,,,,,,,,,,,,,,,,,,,,,,,,,,,,,,,,,/muse/elements/blink
2024-11-24 16:10:45.025,0.1070663602591028,0.7189868292406362,0.334242569605976,0.5009513259694072,0.5956375960178184,0.5063173054118604,0.01680016342783033,0.4855813487644119,0.9604086601026615,0.9222769727516056,0.1753039720787914,0.9263328176314308,0.7052344109432481,1.052516937056729,0.05301846514712293,0.9662085344223323,0.4869682900192567,0.6168369639484365,0.06264758475778359,0.7426336560516036,827.2161172161173,802.2344322344322,792.5641025641025,695.4578754578755,814.7252747252747,-0.466309,0.259399,1.470886,10.818939,-14.998474,15.095673,1,2,1,1,2,75.000000
2024-11-24 16:10:45.196,,,,,,,,,,,,,,,,,,,,,,,,,,,,,,,,,,,,,,/muse/elements/blink
2024-11-24 16:10:45.530,0.1070663602591028,0.6916551622311472,0.276433467902263,0.5009513259694072,0.5956375960178184,0.4842229261093781,-0.01427276071971464,0.4855813487644119,0.9604086601026615,0.9480164012873616,0.4605836297353705,0.9263328176314308,0.7052344109432481,1.036635429806492,0.1203261461821655,0.9662085344223323,0.4869682900192567,0.6415997674460668,0.08546003488848672,0.7426336560516036,823.5897435897436,807.0695970695971,816.3369963369963,830.0366300366301,606.4102564102565,-0.472900,0.260254,1.415833,-6.489868,-7.327271,9.091797,1,2,1,1,2,75.000000
2024-11-24 16:10:46.028,0.1070663602591028,0.6891775872751585,0.242033628946906,0.5009513259694072,0.5956375960178184,0.4451398635437966,0.04328032698450636,0.4855813487644119,0.9604086601026615,0.9518398098474617,0.4930235656836158,0.9263328176314308,0.7052344109432481,0.9883643146277078,0.09261523317505119,0.9662085344223323,0.4869682900192567,0.6981460847007926,0.08053312491336719,0.7426336560516036,811.5018315018315,814.7252747252747,810.6959706959707,840.1098901098901,523.4065934065934,-0.413879,0.233093,1.105713,4.523468,-0.000000,0.231781,1,2,1,1,2,75.000000
2024-11-24 16:10:46.344,,,,,,,,,,,,,,,,,,,,,,,,,,,,,,,,,,,,,,/muse/elements/blink
2024-11-24 16:10:46.525,0.1070663602591028,0.679043432510706,0.3095721604513413,0.5009513259694072,0.5956375960178184,0.2859069921255109,0.2358444384065254,0.4855813487644119,0.9604086601026615,0.8569446334991333,0.5841608301746762,0.9263328176314308,0.7052344109432481,0.9344828003420191,0.1673417776049881,0.9662085344223323,0.4869682900192567,0.7565537503530092,0.08658681187400731,0.7426336560516036,832.8571428571429,823.5897435897436,800.2197802197802,776.8498168498169,871.941391941392,-0.377075,0.166504,0.926575,8.224487,1.921539,0.014954,1,2,1,1,2,75.000000
2024-11-24 16:10:46.967,,,,,,,,,,,,,,,,,,,,,,,,,,,,,,,,,,,,,,/muse/elements/blink
2024-11-24 16:10:47.025,0.1070663602591028,0.679043432510706,0.5593473288513776,0.5009513259694072,0.5956375960178184,0.2859069921255109,0.2990552341537896,0.4855813487644119,0.9604086601026615,0.8569446334991333,0.5606179562950131,0.9263328176314308,0.7052344109432481,0.9344828003420191,0.200024056133065,0.9662085344223323,0.4869682900192567,0.7565537503530092,0.06441778044009701,0.7426336560516036,780.0732600732601,784.1025641025641,803.4432234432235,842.9304029304029,539.5238095238095,-0.339600,0.151306,0.788208,-4.396362,1.697235,-5.076752,1,2,1,1,2,75.000000
2024-11-24 16:10:47.525,0.1070663602591028,0.679043432510706,0.669671343267627,0.5009513259694072,0.5956375960178184,0.2859069921255109,0.3619179737495886,0.4855813487644119,0.9604086601026615,0.8569446334991333,0.4778869731376022,0.9263328176314308,0.7052344109432481,0.9344828003420191,0.2619791888410601,0.9662085344223323,0.4869682900192567,0.7565537503530092,0.05309999986666238,0.7426336560516036,716.8131868131868,819.1575091575091,808.2783882783883,821.1721611721612,1253.516483516484,-0.262207,0.155518,0.692810,2.033691,10.168457,23.888397,1,2,1,1,2,75.000000
2024-11-24 16:10:47.888,,,,,,,,,,,,,,,,,,,,,,,,,,,,,,,,,,,,,,/muse/elements/blink
2024-11-24 16:10:48.025,0.1070663602591028,0.679043432510706,0.8054984268839689,0.5009513259694072,0.5956375960178184,0.2859069921255109,0.2304799333469555,0.4855813487644119,0.9604086601026615,0.8569446334991333,0.355959648381954,0.9263328176314308,0.7052344109432481,0.9344828003420191,0.2570688398884103,0.9662085344223323,0.4869682900192567,0.7565537503530092,0.01892282203304181,0.7426336560516036,795.7875457875458,792.967032967033,822.7838827838829,846.959706959707,997.6556776556777,-0.235107,0.145203,0.698364,1.555176,-9.106750,-10.512390,1,2,1,1,2,75.000000
2024-11-24 16:10:48.406,,,,,,,,,,,,,,,,,,,,,,,,,,,,,,,,,,,,,,/muse/elements/blink
2024-11-24 16:10:48.525,0.1070663602591028,0.679043432510706,0.8265202611060082,0.5009513259694072,0.5956375960178184,0.2859069921255109,0.2875864119443619,0.4855813487644119,0.9604086601026615,0.8569446334991333,0.3525494440732934,0.9263328176314308,0.7052344109432481,0.9344828003420191,0.253490979141816,0.9662085344223323,0.4869682900192567,0.7565537503530092,-0.03040656054702803,0.7426336560516036,859.8534798534798,815.5311355311355,798.6080586080586,923.5164835164835,676.1172161172161,-0.331299,0.120605,0.812012,3.357086,-9.331055,6.130981,1,2,1,1,2,75.000000
2024-11-24 16:10:49.034,0.1070663602591028,0.679043432510706,0.8265202611060082,0.5009513259694072,0.5956375960178184,0.2859069921255109,0.2875864119443619,0.4855813487644119,0.9604086601026615,0.8569446334991333,0.3525494440732934,0.9263328176314308,0.7052344109432481,0.9344828003420191,0.253490979141816,0.9662085344223323,0.4869682900192567,0.7565537503530092,-0.03040656054702803,0.7426336560516036,808.2783882783883,816.3369963369963,819.1575091575091,791.3553113553114,1073.406593406593,-0.353394,0.240601,0.878479,2.990723,1.600037,-12.060089,1,2,1,1,2,75.000000
2024-11-24 16:10:49.093,,,,,,,,,,,,,,,,,,,,,,,,,,,,,,,,,,,,,,/muse/elements/blink
2024-11-24 16:10:49.492,,,,,,,,,,,,,,,,,,,,,,,,,,,,,,,,,,,,,,/muse/elements/blink
2024-11-24 16:10:49.530,0.1070663602591028,0.679043432510706,0.8265202611060082,0.5009513259694072,0.5956375960178184,0.2859069921255109,0.2875864119443619,0.4855813487644119,0.9604086601026615,0.8569446334991333,0.3525494440732934,0.9263328176314308,0.7052344109432481,0.9344828003420191,0.253490979141816,0.9662085344223323,0.4869682900192567,0.7565537503530092,-0.03040656054702803,0.7426336560516036,844.5421245421246,806.6666666666667,812.7106227106227,951.3186813186813,1074.615384615385,-0.294556,0.144775,1.024475,1.577606,-13.615265,-6.258087,1,2,1,1,2,75.000000
2024-11-24 16:10:50.025,0.1070663602591028,0.679043432510706,0.8265202611060082,0.5009513259694072,0.5956375960178184,0.2859069921255109,0.2875864119443619,0.4855813487644119,0.9604086601026615,0.8569446334991333,0.3525494440732934,0.9263328176314308,0.7052344109432481,0.9344828003420191,0.253490979141816,0.9662085344223323,0.4869682900192567,0.7565537503530092,-0.03040656054702803,0.7426336560516036,697.8754578754579,785.3113553113553,790.5494505494506,776.0439560439561,601.1721611721612,-0.371277,0.244751,1.057190,1.757050,14.303131,1.061707,1,2,1,1,2,75.000000
2024-11-24 16:10:50.220,,,,,,,,,,,,,,,,,,,,,,,,,,,,,,,,,,,,,,/muse/elements/blink
2024-11-24 16:10:50.408,,,,,,,,,,,,,,,,,,,,,,,,,,,,,,,,,,,,,,/muse/elements/blink
2024-11-24 16:10:50.525,0.1070663602591028,0.679043432510706,0.8265202611060082,0.5009513259694072,0.5956375960178184,0.2859069921255109,0.2875864119443619,0.4855813487644119,0.9604086601026615,0.8569446334991333,0.3525494440732934,0.9263328176314308,0.7052344109432481,0.9344828003420191,0.253490979141816,0.9662085344223323,0.4869682900192567,0.7565537503530092,-0.03040656054702803,0.7426336560516036,718.8278388278388,854.2124542124542,818.7545787545788,783.6996336996338,584.6520146520147,-0.472900,0.169617,1.057800,0.702820,5.951538,3.663635,1,2,1,1,2,75.000000
2024-11-24 16:10:50.718,,,,,,,,,,,,,,,,,,,,,,,,,,,,,,,,,,,,,,/muse/elements/blink
2024-11-24 16:10:51.025,0.1070663602591028,0.679043432510706,0.8265202611060082,0.5009513259694072,0.5956375960178184,0.2859069921255109,0.2875864119443619,0.4855813487644119,0.9604086601026615,0.8569446334991333,0.3525494440732934,0.9263328176314308,0.7052344109432481,0.9344828003420191,0.253490979141816,0.9662085344223323,0.4869682900192567,0.7565537503530092,-0.03040656054702803,0.7426336560516036,911.0256410256411,850.1831501831502,819.5604395604396,758.7179487179487,1057.289377289377,-0.591125,0.219360,1.283997,0.687866,-6.295471,-0.829926,1,2,1,1,2,75.000000
2024-11-24 16:10:51.046,,,,,,,,,,,,,,,,,,,,,,,,,,,,,,,,,,,,,,/muse/elements/blink
2024-11-24 16:10:51.308,,,,,,,,,,,,,,,,,,,,,,,,,,,,,,,,,,,,,,/muse/elements/blink
2024-11-24 16:10:51.530,0.1070663602591028,0.679043432510706,0.8265202611060082,0.5009513259694072,0.5956375960178184,0.2859069921255109,0.2875864119443619,0.4855813487644119,0.9604086601026615,0.8569446334991333,0.3525494440732934,0.9263328176314308,0.7052344109432481,0.9344828003420191,0.253490979141816,0.9662085344223323,0.4869682900192567,0.7565537503530092,-0.03040656054702803,0.7426336560516036,832.0512820512821,848.1684981684982,814.7252747252747,764.7619047619048,759.5238095238095,-0.481506,0.206055,1.074707,15.275116,-15.103149,3.611298,1,2,1,1,2,75.000000
2024-11-24 16:10:51.543,,,,,,,,,,,,,,,,,,,,,,,,,,,,,,,,,,,,,,/muse/elements/blink
2024-11-24 16:10:51.920,,,,,,,,,,,,,,,,,,,,,,,,,,,,,,,,,,,,,,/muse/elements/blink
2024-11-24 16:10:52.025,0.1070663602591028,0.679043432510706,0.8265202611060082,0.5009513259694072,0.5956375960178184,0.2859069921255109,0.2875864119443619,0.4855813487644119,0.9604086601026615,0.8569446334991333,0.3525494440732934,0.9263328176314308,0.7052344109432481,0.9344828003420191,0.253490979141816,0.9662085344223323,0.4869682900192567,0.7565537503530092,-0.03040656054702803,0.7426336560516036,881.2087912087912,809.4871794871796,811.0989010989011,823.5897435897436,941.2454212454213,-0.550537,0.193848,1.163391,15.080719,-8.030090,-6.587067,1,2,1,1,2,75.000000
2024-11-24 16:10:52.152,,,,,,,,,,,,,,,,,,,,,,,,,,,,,,,,,,,,,,/muse/elements/blink
2024-11-24 16:10:52.524,0.1070663602591028,0.679043432510706,0.8265202611060082,0.5009513259694072,0.5956375960178184,0.2859069921255109,0.2875864119443619,0.4855813487644119,0.9604086601026615,0.8569446334991333,0.3525494440732934,0.9263328176314308,0.7052344109432481,0.9344828003420191,0.253490979141816,0.9662085344223323,0.4869682900192567,0.7565537503530092,-0.03040656054702803,0.7426336560516036,734.5421245421246,801.8315018315019,786.5201465201466,838.4981684981685,1157.619047619048,-0.490540,0.141785,1.084106,-3.229980,0.770111,-8.000183,1,2,1,1,2,75.000000
2024-11-24 16:10:52.842,,,,,,,,,,,,,,,,,,,,,,,,,,,,,,,,,,,,,,/muse/elements/blink
2024-11-24 16:10:53.025,0.1070663602591028,0.679043432510706,0.8265202611060082,0.5009513259694072,0.5956375960178184,0.2859069921255109,0.2875864119443619,0.4855813487644119,0.9604086601026615,0.8569446334991333,0.3525494440732934,0.9263328176314308,0.7052344109432481,0.9344828003420191,0.253490979141816,0.9662085344223323,0.4869682900192567,0.7565537503530092,-0.03040656054702803,0.7426336560516036,681.7582417582418,828.8278388278388,832.0512820512821,576.996336996337,262.3076923076923,-0.395813,0.179810,0.943054,3.678589,10.220795,16.060181,1,2,1,1,2,75.000000
2024-11-24 16:10:53.145,,,,,,,,,,,,,,,,,,,,,,,,,,,,,,,,,,,,,,/muse/elements/blink
2024-11-24 16:10:53.533,0.1070663602591028,0.679043432510706,1.14396751374763,0.5009513259694072,0.5956375960178184,0.2859069921255109,1.187034911840863,0.4855813487644119,0.9604086601026615,0.8569446334991333,1.161368092172072,0.9263328176314308,0.7052344109432481,0.9344828003420191,0.5590302951605269,0.9662085344223323,0.4869682900192567,0.7565537503530092,0.06467797483169886,0.7426336560516036,738.5714285714286,795.3846153846154,780.0732600732601,845.3479853479854,41.0989010989011,-0.328247,0.176453,0.808411,-6.130981,9.966583,-7.252502,1,2,1,1,2,75.000000
2024-11-24 16:10:53.878,,,,,,,,,,,,,,,,,,,,,,,,,,,,,,,,,,,,,,/muse/elements/blink
2024-11-24 16:10:54.026,0.1070663602591028,0.679043432510706,1.14396751374763,0.5009513259694072,0.5956375960178184,0.2859069921255109,1.187034911840863,0.4855813487644119,0.9604086601026615,0.8569446334991333,1.161368092172072,0.9263328176314308,0.7052344109432481,0.9344828003420191,0.5590302951605269,0.9662085344223323,0.4869682900192567,0.7565537503530092,0.06467797483169886,0.7426336560516036,798.2051282051282,788.9377289377289,791.7582417582418,776.0439560439561,457.7289377289378,-0.286377,0.171448,0.743774,6.998291,6.893616,14.048920,1,2,1,1,2,75.000000
2024-11-24 16:10:54.525,0.1070663602591028,0.679043432510706,0.9347672047412461,0.5009513259694072,0.5956375960178184,0.2859069921255109,0.9532839338239306,0.4855813487644119,0.9604086601026615,0.8569446334991333,1.161368092172072,0.9263328176314308,0.7052344109432481,0.9344828003420191,0.440189453615608,0.9662085344223323,0.4869682900192567,0.7565537503530092,0.1553533146088016,0.7426336560516036,760.7326007326008,784.9084249084249,795.7875457875458,798.2051282051282,1011.758241758242,-0.265991,0.158264,0.656250,5.009460,-11.446991,-27.664185,1,2,1,1,2,75.000000
2024-11-24 16:10:54.586,,,,,,,,,,,,,,,,,,,,,,,,,,,,,,,,,,,,,,/muse/elements/blink
2024-11-24 16:10:54.948,,,,,,,,,,,,,,,,,,,,,,,,,,,,,,,,,,,,,,/muse/elements/blink
2024-11-24 16:10:55.025,0.1070663602591028,0.9795912034715051,0.4923903820742681,0.5009513259694072,0.5956375960178184,0.519709743581416,-0.1488577096298082,0.4855813487644119,0.9604086601026615,0.8732431340885487,-0.03991015234634111,0.9263328176314308,0.7052344109432481,0.860570410453233,0.2744727906732577,0.9662085344223323,0.4869682900192567,0.4242565579899421,0.2866298669336447,0.7426336560516036,818.3516483516484,795.3846153846154,788.5347985347986,907.8021978021978,719.2307692307693,-0.262634,0.086975,0.720520,9.248810,-13.047028,-5.263672,1,2,1,1,2,75.000000
2024-11-24 16:10:55.525,0.1070663602591028,1.013052450487549,0.4683505694909972,0.5009513259694072,0.5956375960178184,0.5279863115849539,0.005106507162060762,0.4855813487644119,0.9604086601026615,0.8987977705159873,0.1066842587665294,0.9263328176314308,0.7052344109432481,0.9665782589342129,0.2303905831070761,0.9662085344223323,0.4869682900192567,0.4569424425069847,0.318603959580913,0.7426336560516036,790.952380952381,803.8461538461539,803.4432234432235,757.9120879120879,1051.648351648352,-0.286316,0.182190,0.899048,2.968292,-13.458252,-1.136475,1,2,1,1,2,75.000000
2024-11-24 16:10:55.700,,,,,,,,,,,,,,,,,,,,,,,,,,,,,,,,,,,,,,/muse/elements/blink
2024-11-24 16:10:55.986,,,,,,,,,,,,,,,,,,,,,,,,,,,,,,,,,,,,,,/muse/elements/blink
2024-11-24 16:10:56.025,0.1070663602591028,1.121489456335092,0.849276036553938,0.5009513259694072,0.5956375960178184,0.6857038839474763,0.5775453619490751,0.4855813487644119,0.9604086601026615,0.8989364056207784,0.8317622426329195,0.9263328176314308,0.7052344109432481,0.9542900112440047,0.3217289733673626,0.9662085344223323,0.4869682900192567,0.4474032602900294,0.3650218167553478,0.7426336560516036,853.4065934065934,807.0695970695971,795.3846153846154,872.7472527472528,1474.725274725275,-0.359558,0.104797,0.995972,-2.145844,-5.839386,-6.624451,1,2,1,1,2,75.000000
2024-11-24 16:10:56.525,0.1070663602591028,1.127110867039381,1.030666926148773,0.5009513259694072,0.5956375960178184,0.9178283307636027,0.8129959207414864,0.4855813487644119,0.9604086601026615,0.7840061213762989,0.8758562505845809,0.9263328176314308,0.7052344109432481,0.9123537071906614,0.3271764883510054,0.9662085344223323,0.4869682900192567,0.6175642894062935,0.3545854914461948,0.7426336560516036,760.3296703296703,796.996336996337,805.0549450549451,770,1186.630036630037,-0.352844,0.248901,1.001221,13.495636,10.190887,-5.091705,1,2,1,1,2,75.000000
2024-11-24 16:10:56.623,,,,,,,,,,,,,,,,,,,,,,,,,,,,,,,,,,,,,,/muse/elements/blink
2024-11-24 16:10:56.839,,,,,,,,,,,,,,,,,,,,,,,,,,,,,,,,,,,,,,/muse/elements/blink
2024-11-24 16:10:57.025,0.1070663602591028,1.036933649128395,1.035061175913178,0.5009513259694072,0.5956375960178184,0.8868536640050083,0.8082934590977993,0.4855813487644119,0.9604086601026615,0.7126853048556799,0.8764009309114582,0.9263328176314308,0.7052344109432481,0.6879412182836548,0.3252332962557523,0.9662085344223323,0.4869682900192567,0.6790804475888153,0.2709277821384254,0.7426336560516036,713.1868131868132,798.2051282051282,800.2197802197802,751.8681318681319,186.959706959707,-0.352783,0.141907,0.908752,8.628235,-2.415009,11.865692,1,2,1,1,2,75.000000
2024-11-24 16:10:57.540,0.1070663602591028,1.04497192188169,1.254157444095717,0.5009513259694072,0.5956375960178184,0.9249173019246052,0.9625497733951562,0.4855813487644119,0.9604086601026615,1.153819196184259,0.9239819373657763,0.9263328176314308,0.7052344109432481,0.7860305632163628,0.336913286954802,0.9662085344223323,0.4869682900192567,0.6066840514011351,0.1548256520626157,0.7426336560516036,942.0512820512821,819.96336996337,816.3369963369963,834.4688644688645,1247.472527472527,-0.250732,0.249084,0.845337,-2.871094,9.832001,-0.448608,1,2,1,1,2,75.000000
2024-11-24 16:10:57.814,,,,,,,,,,,,,,,,,,,,,,,,,,,,,,,,,,,,,,/muse/elements/blink
2024-11-24 16:10:58.031,0.1070663602591028,0.9101181967620656,1.261167646323597,0.5009513259694072,0.5956375960178184,0.7803151259411214,0.9056355609178769,0.4855813487644119,0.9604086601026615,1.154994060065794,0.8226362157115628,0.9263328176314308,0.7052344109432481,0.916403387878609,0.31041807664671,0.9662085344223323,0.4869682900192567,0.4918257985435907,-0.06233096396756985,0.7426336560516036,780.4761904761905,809.4871794871796,802.2344322344322,711.978021978022,835.2747252747253,-0.292297,0.160034,0.901611,14.153595,-6.953430,5.196381,1,2,1,1,2,75.000000
2024-11-24 16:10:58.257,,,,,,,,,,,,,,,,,,,,,,,,,,,,,,,,,,,,,,/muse/elements/blink
2024-11-24 16:10:58.525,0.1070663602591028,0.9790779729391055,1.479701345707438,0.5009513259694072,0.5956375960178184,0.909239338080018,1.13066175245191,0.4855813487644119,0.9604086601026615,1.154994060065794,0.8201712586257216,0.9263328176314308,0.7052344109432481,1.006981290817119,0.427917326728677,0.9662085344223323,0.4869682900192567,0.334108226100695,-0.09486600960386554,0.7426336560516036,799.4139194139194,812.3076923076924,793.7728937728938,792.1611721611722,622.1245421245421,-0.475403,0.234436,1.158203,1.674805,-10.273132,3.611298,1,2,1,1,2,75.000000
2024-11-24 16:10:58.614,,,,,,,,,,,,,,,,,,,,,,,,,,,,,,,,,,,,,,/muse/elements/blink
2024-11-24 16:10:58.874,,,,,,,,,,,,,,,,,,,,,,,,,,,,,,,,,,,,,,/muse/elements/blink
2024-11-24 16:10:59.025,0.1070663602591028,0.9528245613954398,1.479701345707438,0.5009513259694072,0.5956375960178184,0.9026494251325101,1.13066175245191,0.4855813487644119,0.9604086601026615,1.149835513741915,0.8201712586257216,0.9263328176314308,0.7052344109432481,1.082777244763631,0.427917326728677,0.9662085344223323,0.4869682900192567,0.3161498970525791,-0.09486600960386554,0.7426336560516036,902.5641025641025,783.6996336996338,781.6849816849817,867.9120879120879,413.8095238095238,-0.497681,0.221680,1.193909,3.992615,-4.643097,5.084229,1,2,1,1,2,75.000000
2024-11-24 16:10:59.368,,,,,,,,,,,,,,,,,,,,,,,,,,,,,,,,,,,,,,/muse/elements/blink
2024-11-24 16:10:59.525,0.1070663602591028,0.9528245613954398,0.7550108511913211,0.5009513259694072,0.5956375960178184,0.9026494251325101,0.5752924954534312,0.4855813487644119,0.9604086601026615,1.149835513741915,0.5691342094373056,0.9263328176314308,0.7052344109432481,1.082777244763631,0.5445673375114273,0.9662085344223323,0.4869682900192567,0.3161498970525791,0.3607000837510043,0.7426336560516036,808.2783882783883,815.5311355311355,795.3846153846154,781.6849816849817,1014.175824175824,-0.466431,0.168701,1.013123,0.291595,6.661835,8.934784,1,2,1,1,2,75.000000
2024-11-24 16:10:59.648,,,,,,,,,,,,,,,,,,,,,,,,,,,,,,,,,,,,,,/muse/elements/blink
2024-11-24 16:10:59.836,,,,,,,,,,,,,,,,,,,,,,,,,,,,,,,,,,,,,,/muse/elements/blink
2024-11-24 16:11:00.034,0.1070663602591028,0.9528245613954398,0.7550108511913211,0.5009513259694072,0.5956375960178184,0.9026494251325101,0.5752924954534312,0.4855813487644119,0.9604086601026615,1.149835513741915,0.5691342094373056,0.9263328176314308,0.7052344109432481,1.082777244763631,0.5445673375114273,0.9662085344223323,0.4869682900192567,0.3161498970525791,0.3607000837510043,0.7426336560516036,858.2417582417582,794.5787545787546,814.3223443223443,907.8021978021978,151.5018315018315,-0.337585,0.144531,0.799866,-0.276642,2.198181,0.949554,1,2,1,1,2,75.000000
2024-11-24 16:11:00.164,,,,,,,,,,,,,,,,,,,,,,,,,,,,,,,,,,,,,,/muse/elements/blink
2024-11-24 16:11:00.449,,,,,,,,,,,,,,,,,,,,,,,,,,,,,,,,,,,,,,/muse/elements/blink
2024-11-24 16:11:00.528,0.1070663602591028,0.9528245613954398,0.827335994154477,0.5009513259694072,0.5956375960178184,0.9026494251325101,0.6168268020272796,0.4855813487644119,0.9604086601026615,1.149835513741915,0.5691342094373056,0.9263328176314308,0.7052344109432481,1.082777244763631,0.489477163751413,0.9662085344223323,0.4869682900192567,0.3161498970525791,0.3976927269388115,0.7426336560516036,706.3369963369963,821.5750915750916,797.8021978021978,786.5201465201466,571.3553113553114,-0.318054,0.151123,0.714417,4.575806,3.768311,16.508789,1,2,1,1,2,75.000000
2024-11-24 16:11:00.777,,,,,,,,,,,,,,,,,,,,,,,,,,,,,,,,,,,,,,/muse/elements/blink
2024-11-24 16:11:01.025,0.1070663602591028,0.9528245613954398,0.827335994154477,0.5009513259694072,0.5956375960178184,0.9026494251325101,0.6168268020272796,0.4855813487644119,0.9604086601026615,1.149835513741915,0.5691342094373056,0.9263328176314308,0.7052344109432481,1.082777244763631,0.489477163751413,0.9662085344223323,0.4869682900192567,0.3161498970525791,0.3976927269388115,0.7426336560516036,760.7326007326008,789.7435897435897,797.8021978021978,758.7179487179487,778.8644688644689,-0.269836,0.149048,0.690674,-2.534637,-11.903076,-3.244934,1,2,1,1,2,75.000000
2024-11-24 16:11:01.479,,,,,,,,,,,,,,,,,,,,,,,,,,,,,,,,,,,,,,/muse/elements/blink
2024-11-24 16:11:01.529,0.1070663602591028,0.9528245613954398,0.827335994154477,0.5009513259694072,0.5956375960178184,0.9026494251325101,0.6168268020272796,0.4855813487644119,0.9604086601026615,1.149835513741915,0.5691342094373056,0.9263328176314308,0.7052344109432481,1.082777244763631,0.489477163751413,0.9662085344223323,0.4869682900192567,0.3161498970525791,0.3976927269388115,0.7426336560516036,789.7435897435897,816.3369963369963,807.0695970695971,754.2857142857143,599.5604395604396,-0.274048,0.165527,0.700623,2.198181,5.944061,24.643555,1,2,1,1,2,75.000000
2024-11-24 16:11:02.025,0.1070663602591028,0.9528245613954398,0.827335994154477,0.5009513259694072,0.5956375960178184,0.9026494251325101,0.6168268020272796,0.4855813487644119,0.9604086601026615,1.149835513741915,0.5691342094373056,0.9263328176314308,0.7052344109432481,1.082777244763631,0.489477163751413,0.9662085344223323,0.4869682900192567,0.3161498970525791,0.3976927269388115,0.7426336560516036,898.5347985347986,794.1758241758242,814.3223443223443,780.4761904761905,1429.59706959707,-0.281921,0.180908,0.777344,12.867584,-7.461853,-8.388977,1,2,1,1,2,75.000000
2024-11-24 16:11:02.089,,,,,,,,,,,,,,,,,,,,,,,,,,,,,,,,,,,,,,/muse/elements/blink
2024-11-24 16:11:02.525,0.1070663602591028,0.9528245613954398,0.6130851667865265,0.5009513259694072,0.5956375960178184,0.9026494251325101,0.2120948714032401,0.4855813487644119,0.9604086601026615,1.149835513741915,0.4389802569394878,0.9263328176314308,0.7052344109432481,1.082777244763631,0.2423919473938837,0.9662085344223323,0.4869682900192567,0.3161498970525791,0.1765571616704116,0.7426336560516036,828.4249084249085,781.6849816849817,788.5347985347986,935.2014652014652,1256.739926739927,-0.310120,0.067627,0.814758,-8.396454,-11.693726,-6.310425,1,2,1,1,2,75.000000
2024-11-24 16:11:02.601,,,,,,,,,,,,,,,,,,,,,,,,,,,,,,,,,,,,,,/muse/elements/blink
2024-11-24 16:11:03.034,0.1070663602591028,0.9528245613954398,0.8391158611378421,0.5009513259694072,0.5956375960178184,0.9026494251325101,0.5851855967191515,0.4855813487644119,0.9604086601026615,1.149835513741915,0.4890995873988947,0.9263328176314308,0.7052344109432481,1.082777244763631,0.2814192220171663,0.9662085344223323,0.4869682900192567,0.3161498970525791,0.1739689111445718,0.7426336560516036,803.8461538461539,815.934065934066,801.025641025641,751.0622710622711,1112.893772893773,-0.332947,0.237549,0.995850,5.592651,-6.893616,0.321503,1,2,1,1,2,75.000000
2024-11-24 16:11:03.212,,,,,,,,,,,,,,,,,,,,,,,,,,,,,,,,,,,,,,/muse/elements/blink
2024-11-24 16:11:03.525,0.1070663602591028,0.9528245613954398,0.8979905137142196,0.5009513259694072,0.5956375960178184,0.9026494251325101,0.6537159794687416,0.4855813487644119,0.9604086601026615,1.149835513741915,0.4866836888485291,0.9263328176314308,0.7052344109432481,1.082777244763631,0.3024873881581377,0.9662085344223323,0.4869682900192567,0.3161498970525791,0.1562470287706542,0.7426336560516036,904.981684981685,797.3992673992674,813.5164835164835,875.5677655677656,1464.652014652015,-0.318481,0.179626,1.004761,-7.820740,1.390686,-3.349609,1,2,1,1,2,75.000000
2024-11-24 16:11:03.633,,,,,,,,,,,,,,,,,,,,,,,,,,,,,,,,,,,,,,/muse/elements/blink
2024-11-24 16:11:04.009,,,,,,,,,,,,,,,,,,,,,,,,,,,,,,,,,,,,,,/muse/elements/blink
2024-11-24 16:11:04.025,0.1070663602591028,0.9528245613954398,0.7761170025107066,0.5009513259694072,0.5956375960178184,0.9026494251325101,0.6249550054908778,0.4855813487644119,0.9604086601026615,1.149835513741915,0.3229715310012881,0.9263328176314308,0.7052344109432481,1.082777244763631,0.3250568813596953,0.9662085344223323,0.4869682900192567,0.3161498970525791,0.1650515693917479,0.7426336560516036,810.2930402930403,802.2344322344322,789.7435897435897,873.956043956044,1336.520146520146,-0.322754,0.235168,0.897949,-0.665436,0.373840,-6.564636,1,2,1,1,2,80.000000
2024-11-24 16:11:04.541,0.1070663602591028,0.9528245613954398,0.8986384908776857,0.5009513259694072,0.5956375960178184,0.9026494251325101,1.001657206448871,0.4855813487644119,0.9604086601026615,1.149835513741915,0.7645070253486578,0.9263328176314308,0.7052344109432481,1.082777244763631,0.6010968958853009,0.9662085344223323,0.4869682900192567,0.3161498970525791,0.2471218034319398,0.7426336560516036,900.952380952381,818.3516483516484,812.7106227106227,879.5970695970697,425.8974358974359,-0.355164,0.180908,1.012085,0.964508,9.338531,-4.471130,1,2,1,1,2,80.000000
2024-11-24 16:11:04.713,,,,,,,,,,,,,,,,,,,,,,,,,,,,,,,,,,,,,,/muse/elements/blink
2024-11-24 16:11:05.032,0.1070663602591028,0.9528245613954398,0.811849399979012,0.5009513259694072,0.5956375960178184,0.9026494251325101,0.8914839009967568,0.4855813487644119,0.9604086601026615,1.149835513741915,0.7645070253486578,0.9263328176314308,0.7052344109432481,1.082777244763631,0.5631140893438598,0.9662085344223323,0.4869682900192567,0.3161498970525791,0.2763216077219612,0.7426336560516036,951.7216117216118,813.919413919414,807.4725274725275,896.1172161172161,1627.838827838828,-0.498108,0.223083,1.177002,0.553284,-6.250610,-10.362854,1,2,1,1,2,80.000000
2024-11-24 16:11:05.325,,,,,,,,,,,,,,,,,,,,,,,,,,,,,,,,,,,,,,/muse/elements/blink
2024-11-24 16:11:05.525,0.1070663602591028,0.9528245613954398,0.8925187480712977,0.5009513259694072,0.5956375960178184,0.9026494251325101,0.9363543296293508,0.4855813487644119,0.9604086601026615,1.149835513741915,0.7645070253486578,0.9263328176314308,0.7052344109432481,1.082777244763631,0.5714765271417882,0.9662085344223323,0.4869682900192567,0.3161498970525791,0.2731611502810577,0.7426336560516036,871.5384615384615,838.0952380952381,792.5641025641025,695.8608058608058,1031.098901098901,-0.460510,0.239807,1.153381,6.437531,-13.682556,15.417175,1,2,1,1,2,80.000000
2024-11-24 16:11:05.789,,,,,,,,,,,,,,,,,,,,,,,,,,,,,,,,,,,,,,/muse/elements/blink
2024-11-24 16:11:06.025,0.1070663602591028,0.9528245613954398,0.765183153158262,0.5009513259694072,0.5956375960178184,0.9026494251325101,0.6792561510502152,0.4855813487644119,0.9604086601026615,1.149835513741915,0.5856094085391615,0.9263328176314308,0.7052344109432481,1.082777244763631,0.4615529789176327,0.9662085344223323,0.4869682900192567,0.3161498970525791,0.2646915229269639,0.7426336560516036,782.0879120879121,787.7289377289378,804.2490842490843,849.3772893772895,498.8278388278388,-0.435791,0.206482,1.010742,4.463654,3.701019,-2.325287,1,2,1,1,2,80.000000
2024-11-24 16:11:06.357,,,,,,,,,,,,,,,,,,,,,,,,,,,,,,,,,,,,,,/muse/elements/blink
2024-11-24 16:11:06.539,0.1070663602591028,0.7258911574158514,0.6074811327940722,0.5009513259694072,0.5956375960178184,0.2610108749401984,0.2533825387845489,0.4855813487644119,0.9604086601026615,0.694576144715897,0.03059289213555422,0.9263328176314308,0.7052344109432481,0.7827703860955991,0.2423814182619684,0.9662085344223323,0.4869682900192567,0.7713860760661686,0.1975426513929794,0.7426336560516036,774.4322344322345,799.0109890109891,796.996336996337,547.985347985348,637.032967032967,-0.439209,0.233093,1.188477,9.779663,-6.243134,19.462128,1,2,1,1,2,80.000000
2024-11-24 16:11:06.763,,,,,,,,,,,,,,,,,,,,,,,,,,,,,,,,,,,,,,/muse/elements/blink
2024-11-24 16:11:07.033,0.1070663602591028,0.5602553545405774,0.5001765631665116,0.5009513259694072,0.5956375960178184,0.3451913097602745,-0.1920151990065282,0.4855813487644119,0.9604086601026615,0.7393766440410148,0.08511180792106995,0.9263328176314308,0.7052344109432481,0.8926857619673567,0.3418224517523352,0.9662085344223323,0.4869682900192567,0.8459101205001273,0.576530742624392,0.7426336560516036,791.7582417582418,801.8315018315019,815.1282051282052,839.3040293040293,726.0805860805862,-0.557922,0.210327,1.212097,1.233673,-1.114044,4.650574,1,2,1,1,2,80.000000
2024-11-24 16:11:07.045,,,,,,,,,,,,,,,,,,,,,,,,,,,,,,,,,,,,,,/muse/elements/blink
2024-11-24 16:11:07.395,,,,,,,,,,,,,,,,,,,,,,,,,,,,,,,,,,,,,,/muse/elements/blink
2024-11-24 16:11:07.528,0.1070663602591028,0.5602553545405774,0.7605763988547595,0.5009513259694072,0.5956375960178184,0.3451913097602745,0.2771417391571821,0.4855813487644119,0.9604086601026615,0.7393766440410148,0.6275923297106729,0.9263328176314308,0.7052344109432481,0.8926857619673567,0.3289436028356721,0.9662085344223323,0.4869682900192567,0.8459101205001273,0.5470044521948575,0.7426336560516036,853.0036630036631,824.3956043956044,807.0695970695971,857.8388278388279,461.3553113553114,-0.346497,0.144470,0.718872,7.312317,9.435730,-8.508606,1,2,1,1,2,80.000000
2024-11-24 16:11:07.585,,,,,,,,,,,,,,,,,,,,,,,,,,,,,,,,,,,,,,/muse/elements/blink
2024-11-24 16:11:07.913,,,,,,,,,,,,,,,,,,,,,,,,,,,,,,,,,,,,,,/muse/elements/blink
2024-11-24 16:11:08.025,0.1070663602591028,0.5212922043834813,0.9303074370917378,0.5009513259694072,0.5956375960178184,0.3343696532310349,0.5469721075364017,0.4855813487644119,0.9604086601026615,0.7392115575358329,0.7948359247143673,0.9263328176314308,0.7052344109432481,0.9137291619473138,0.3650901464347764,0.9662085344223323,0.4869682900192567,0.840532098722072,0.5918944058486998,0.7426336560516036,555.2380952380953,841.7216117216118,855.4212454212454,599.5604395604396,0,-0.281311,0.122437,0.668518,1.824341,-0.725250,20.381775,1,2,1,1,2,80.000000
2024-11-24 16:11:08.171,,,,,,,,,,,,,,,,,,,,,,,,,,,,,,,,,,,,,,/muse/elements/blink
2024-11-24 16:11:08.525,0.1070663602591028,0.5212922043834813,1.099303322651962,0.5009513259694072,0.5956375960178184,0.3343696532310349,0.7819415091046614,0.4855813487644119,0.9604086601026615,0.7392115575358329,0.7948359247143673,0.9263328176314308,0.7052344109432481,0.9137291619473138,0.3597722654317485,0.9662085344223323,0.4869682900192567,0.840532098722072,0.5264718696202296,0.7426336560516036,633.8095238095239,823.1868131868132,834.0659340659341,745.8241758241759,971.4652014652015,-0.243469,0.140747,0.586731,-0.942078,9.839478,-23.596802,1,2,1,1,2,80.000000
2024-11-24 16:11:08.610,,,,,,,,,,,,,,,,,,,,,,,,,,,,,,,,,,,,,,/muse/elements/blink
2024-11-24 16:11:08.965,,,,,,,,,,,,,,,,,,,,,,,,,,,,,,,,,,,,,,/muse/elements/blink
2024-11-24 16:11:09.025,0.1070663602591028,0.5212922043834813,1.184100947467449,0.5009513259694072,0.5956375960178184,0.3343696532310349,0.9398914748882594,0.4855813487644119,0.9604086601026615,0.7392115575358329,0.7948359247143673,0.9263328176314308,0.7052344109432481,0.9137291619473138,0.3993473781583012,0.9662085344223323,0.4869682900192567,0.840532098722072,0.5195759596973195,0.7426336560516036,772.4175824175825,802.2344322344322,814.3223443223443,783.6996336996338,942.8571428571429,-0.211731,0.149841,0.771118,1.383209,-8.628235,21.981812,1,2,1,1,2,80.000000
2024-11-24 16:11:09.497,,,,,,,,,,,,,,,,,,,,,,,,,,,,,,,,,,,,,,/muse/elements/blink
2024-11-24 16:11:09.534,0.1070663602591028,0.5212922043834813,1.184100947467449,0.5009513259694072,0.5956375960178184,0.3343696532310349,0.9398914748882594,0.4855813487644119,0.9604086601026615,0.7392115575358329,0.7948359247143673,0.9263328176314308,0.7052344109432481,0.9137291619473138,0.3993473781583012,0.9662085344223323,0.4869682900192567,0.840532098722072,0.5195759596973195,0.7426336560516036,882.4175824175825,786.5201465201466,792.5641025641025,789.7435897435897,1345.787545787546,-0.344177,0.241211,0.941467,3.349609,-14.699402,-6.878662,1,2,1,1,2,80.000000
2024-11-24 16:11:10.025,0.1070663602591028,0.5212922043834813,1.184100947467449,0.5009513259694072,0.5956375960178184,0.3343696532310349,0.9398914748882594,0.4855813487644119,0.9604086601026615,0.7392115575358329,0.7948359247143673,0.9263328176314308,0.7052344109432481,0.9137291619473138,0.3993473781583012,0.9662085344223323,0.4869682900192567,0.840532098722072,0.5195759596973195,0.7426336560516036,877.5824175824176,782.0879120879121,773.6263736263736,946.4835164835165,1285.347985347985,-0.371216,0.130859,1.008789,5.181427,-6.430054,8.628235,1,2,1,1,2,80.000000
2024-11-24 16:11:10.101,,,,,,,,,,,,,,,,,,,,,,,,,,,,,,,,,,,,,,/muse/elements/blink
2024-11-24 16:11:10.533,0.1070663602591028,0.5212922043834813,1.184100947467449,0.5009513259694072,0.5956375960178184,0.3343696532310349,0.9398914748882594,0.4855813487644119,0.9604086601026615,0.7392115575358329,0.7948359247143673,0.9263328176314308,0.7052344109432481,0.9137291619473138,0.3993473781583012,0.9662085344223323,0.4869682900192567,0.840532098722072,0.5195759596973195,0.7426336560516036,788.1318681318681,789.7435897435897,758.3150183150184,728.4981684981685,1534.761904761905,-0.365784,0.190308,0.819275,9.764709,-6.213226,-14.288177,1,2,1,1,2,80.000000
2024-11-24 16:11:10.635,,,,,,,,,,,,,,,,,,,,,,,,,,,,,,,,,,,,,,/muse/elements/blink
2024-11-24 16:11:11.025,0.1070663602591028,0.5212922043834813,1.184100947467449,0.5009513259694072,0.5956375960178184,0.3343696532310349,0.9398914748882594,0.4855813487644119,0.9604086601026615,0.7392115575358329,0.7948359247143673,0.9263328176314308,0.7052344109432481,0.9137291619473138,0.3993473781583012,0.9662085344223323,0.4869682900192567,0.840532098722072,0.5195759596973195,0.7426336560516036,853.8095238095239,809.8901098901099,800.2197802197802,882.8205128205128,1054.871794871795,-0.326294,0.181152,1.015930,7.342224,-2.190704,-8.635712,1,2,1,1,2,80.000000
2024-11-24 16:11:11.131,,,,,,,,,,,,,,,,,,,,,,,,,,,,,,,,,,,,,,/muse/elements/blink
2024-11-24 16:11:11.525,0.1070663602591028,0.5212922043834813,1.184100947467449,0.5009513259694072,0.5956375960178184,0.3343696532310349,0.9398914748882594,0.4855813487644119,0.9604086601026615,0.7392115575358329,0.7948359247143673,0.9263328176314308,0.7052344109432481,0.9137291619473138,0.3993473781583012,0.9662085344223323,0.4869682900192567,0.840532098722072,0.5195759596973195,0.7426336560516036,818.7545787545788,807.0695970695971,806.6666666666667,771.2087912087912,1342.967032967033,-0.418396,0.201660,1.027405,-14.886322,17.891998,18.512573,1,2,1,1,2,80.000000
2024-11-24 16:11:11.575,,,,,,,,,,,,,,,,,,,,,,,,,,,,,,,,,,,,,,/muse/elements/blink
2024-11-24 16:11:12.034,0.1070663602591028,0.5212922043834813,1.184100947467449,0.5009513259694072,0.5956375960178184,0.3343696532310349,0.9398914748882594,0.4855813487644119,0.9604086601026615,0.7392115575358329,0.7948359247143673,0.9263328176314308,0.7052344109432481,0.9137291619473138,0.3993473781583012,0.9662085344223323,0.4869682900192567,0.840532098722072,0.5195759596973195,0.7426336560516036,700.6959706959707,818.7545787545788,797.3992673992674,685.7875457875458,123.6996336996337,-0.449707,0.131714,0.944031,7.641296,-9.091797,8.089905,1,2,1,1,2,80.000000
2024-11-24 16:11:12.163,,,,,,,,,,,,,,,,,,,,,,,,,,,,,,,,,,,,,,/muse/elements/blink
2024-11-24 16:11:12.537,0.1070663602591028,0.5212922043834813,1.184100947467449,0.5009513259694072,0.5956375960178184,0.3343696532310349,0.9398914748882594,0.4855813487644119,0.9604086601026615,0.7392115575358329,0.7948359247143673,0.9263328176314308,0.7052344109432481,0.9137291619473138,0.3993473781583012,0.9662085344223323,0.4869682900192567,0.840532098722072,0.5195759596973195,0.7426336560516036,969.047619047619,790.1465201465202,783.6996336996338,792.5641025641025,2.014652014652015,-0.612915,0.170837,1.067871,2.243042,-3.925323,-2.295380,1,2,1,1,2,80.000000
2024-11-24 16:11:12.548,,,,,,,,,,,,,,,,,,,,,,,,,,,,,,,,,,,,,,/muse/elements/blink
2024-11-24 16:11:12.873,,,,,,,,,,,,,,,,,,,,,,,,,,,,,,,,,,,,,,/muse/elements/blink
2024-11-24 16:11:13.026,0.1070663602591028,0.5212922043834813,1.184100947467449,0.5009513259694072,0.5956375960178184,0.3343696532310349,0.9398914748882594,0.4855813487644119,0.9604086601026615,0.7392115575358329,0.7948359247143673,0.9263328176314308,0.7052344109432481,0.9137291619473138,0.3993473781583012,0.9662085344223323,0.4869682900192567,0.840532098722072,0.5195759596973195,0.7426336560516036,780.0732600732601,810.2930402930403,791.7582417582418,768.7912087912088,316.3003663003663,-0.700989,0.329895,1.483582,11.118011,-3.910370,5.652466,1,2,1,1,2,80.000000
2024-11-24 16:11:13.247,,,,,,,,,,,,,,,,,,,,,,,,,,,,,,,,,,,,,,/muse/elements/blink
2024-11-24 16:11:13.525,0.1070663602591028,0.5212922043834813,1.184100947467449,0.5009513259694072,0.5956375960178184,0.3343696532310349,0.9398914748882594,0.4855813487644119,0.9604086601026615,0.7392115575358329,0.7948359247143673,0.9263328176314308,0.7052344109432481,0.9137291619473138,0.3993473781583012,0.9662085344223323,0.4869682900192567,0.840532098722072,0.5195759596973195,0.7426336560516036,695.8608058608058,814.7252747252747,812.3076923076924,718.4249084249085,287.6923076923077,-0.525940,0.166260,0.971191,4.231873,-6.602020,-3.573914,1,2,1,1,2,80.000000
2024-11-24 16:11:13.652,,,,,,,,,,,,,,,,,,,,,,,,,,,,,,,,,,,,,,/muse/elements/blink
2024-11-24 16:11:14.025,0.1070663602591028,0.5212922043834813,1.184100947467449,0.5009513259694072,0.5956375960178184,0.3343696532310349,0.9398914748882594,0.4855813487644119,0.9604086601026615,0.7392115575358329,0.7948359247143673,0.9263328176314308,0.7052344109432481,0.9137291619473138,0.3993473781583012,0.9662085344223323,0.4869682900192567,0.840532098722072,0.5195759596973195,0.7426336560516036,884.4322344322345,792.1611721611722,796.996336996337,861.4652014652015,16.92307692307692,-0.447144,0.181091,0.808105,4.493561,11.110535,-4.336548,1,2,1,1,2,80.000000
2024-11-24 16:11:14.361,,,,,,,,,,,,,,,,,,,,,,,,,,,,,,,,,,,,,,/muse/elements/blink
2024-11-24 16:11:14.525,0.1070663602591028,0.5212922043834813,1.181922047536625,0.5009513259694072,0.5956375960178184,0.3343696532310349,-0.02486207335883301,0.4855813487644119,0.9604086601026615,0.7392115575358329,0.2231513783463583,0.9263328176314308,0.7052344109432481,0.9137291619473138,0.4367432412301104,0.9662085344223323,0.4869682900192567,0.840532098722072,0.3470772388555413,0.7426336560516036,685.3846153846154,803.040293040293,814.3223443223443,763.1501831501831,113.2234432234432,-0.407715,0.132874,0.696167,3.087921,4.530945,3.581390,1,2,1,1,2,75.000000
2024-11-24 16:11:14.785,,,,,,,,,,,,,,,,,,,,,,,,,,,,,,,,,,,,,,/muse/elements/blink
2024-11-24 16:11:15.033,0.1070663602591028,0.5212922043834813,1.164135282514573,0.5009513259694072,0.5956375960178184,0.3343696532310349,-0.1951816297694225,0.4855813487644119,0.9604086601026615,0.7392115575358329,0.421234036136177,0.9263328176314308,0.7052344109432481,0.9137291619473138,0.5413358513395079,0.9662085344223323,0.4869682900192567,0.840532098722072,0.3336916869583368,0.7426336560516036,884.0293040293041,804.6520146520147,766.7765567765568,1031.098901098901,8.864468864468865,-0.407227,0.155579,0.700256,12.673187,-5.704803,-32.965240,1,2,1,1,2,75.000000
2024-11-24 16:11:15.209,,,,,,,,,,,,,,,,,,,,,,,,,,,,,,,,,,,,,,/muse/elements/blink
2024-11-24 16:11:15.398,,,,,,,,,,,,,,,,,,,,,,,,,,,,,,,,,,,,,,/muse/elements/blink
2024-11-24 16:11:15.534,0.1070663602591028,0.5212922043834813,1.158601202669826,0.5009513259694072,0.5956375960178184,0.3343696532310349,0.3165088157007831,0.4855813487644119,0.9604086601026615,0.7392115575358329,0.7117260832441064,0.9263328176314308,0.7052344109432481,0.9137291619473138,0.5922549119122573,0.9662085344223323,0.4869682900192567,0.840532098722072,0.3683857142286865,0.7426336560516036,706.7399267399268,810.6959706959707,812.7106227106227,849.7802197802198,592.7106227106227,-0.341187,0.173584,0.662292,8.927307,-4.127197,6.459961,1,2,1,1,2,75.000000
2024-11-24 16:11:15.810,,,,,,,,,,,,,,,,,,,,,,,,,,,,,,,,,,,,,,/muse/elements/blink
2024-11-24 16:11:16.037,0.1070663602591028,0.5212922043834813,1.156428322703728,0.5009513259694072,0.5956375960178184,0.3343696532310349,0.3957577270063035,0.4855813487644119,0.9604086601026615,0.7392115575358329,0.7117260832441064,0.9263328176314308,0.7052344109432481,0.9137291619473138,0.6503454585257804,0.9662085344223323,0.4869682900192567,0.840532098722072,0.4015774723835622,0.7426336560516036,818.7545787545788,798.6080586080586,814.3223443223443,776.8498168498169,1304.285714285714,-0.333008,0.203735,0.798706,4.762726,-11.162872,-10.766602,1,2,1,1,2,75.000000
2024-11-24 16:11:16.426,,,,,,,,,,,,,,,,,,,,,,,,,,,,,,,,,,,,,,/muse/elements/blink
2024-11-24 16:11:16.531,0.1070663602591028,0.5212922043834813,1.105468093610145,0.5009513259694072,0.5956375960178184,0.3343696532310349,0.6579314758037159,0.4855813487644119,0.9604086601026615,0.7392115575358329,0.6739479904756583,0.9263328176314308,0.7052344109432481,0.9137291619473138,0.678147980438129,0.9662085344223323,0.4869682900192567,0.840532098722072,0.4576472712824714,0.7426336560516036,861.8681318681319,818.3516483516484,804.2490842490843,818.7545787545788,1355.860805860806,-0.274048,0.137329,0.670959,3.895416,-4.545898,26.041718,1,2,1,1,2,75.000000
2024-11-24 16:11:16.829,,,,,,,,,,,,,,,,,,,,,,,,,,,,,,,,,,,,,,/muse/elements/blink
2024-11-24 16:11:17.035,0.1070663602591028,0.5212922043834813,1.105468093610145,0.5009513259694072,0.5956375960178184,0.3343696532310349,0.6579314758037159,0.4855813487644119,0.9604086601026615,0.7392115575358329,0.6739479904756583,0.9263328176314308,0.7052344109432481,0.9137291619473138,0.678147980438129,0.9662085344223323,0.4869682900192567,0.840532098722072,0.4576472712824714,0.7426336560516036,781.6849816849817,783.2967032967033,808.2783882783883,727.2893772893773,866.3003663003664,-0.293579,0.184570,0.723083,2.228088,-13.002167,-5.263672,1,2,1,1,2,75.000000
2024-11-24 16:11:17.329,,,,,,,,,,,,,,,,,,,,,,,,,,,,,,,,,,,,,,/muse/elements/blink
2024-11-24 16:11:17.516,,,,,,,,,,,,,,,,,,,,,,,,,,,,,,,,,,,,,,/muse/elements/blink
2024-11-24 16:11:17.526,0.1070663602591028,0.5212922043834813,1.105468093610145,0.5009513259694072,0.5956375960178184,0.3343696532310349,0.6579314758037159,0.4855813487644119,0.9604086601026615,0.7392115575358329,0.6739479904756583,0.9263328176314308,0.7052344109432481,0.9137291619473138,0.678147980438129,0.9662085344223323,0.4869682900192567,0.840532098722072,0.4576472712824714,0.7426336560516036,847.3626373626374,828.4249084249085,826.4102564102565,1010.952380952381,1454.175824175824,-0.391357,0.124573,0.981201,-2.714081,0.942078,2.340240,1,2,1,1,2,75.000000
2024-11-24 16:11:18.028,0.1070663602591028,0.5212922043834813,1.105468093610145,0.5009513259694072,0.5956375960178184,0.3343696532310349,0.6579314758037159,0.4855813487644119,0.9604086601026615,0.7392115575358329,0.6739479904756583,0.9263328176314308,0.7052344109432481,0.9137291619473138,0.678147980438129,0.9662085344223323,0.4869682900192567,0.840532098722072,0.4576472712824714,0.7426336560516036,802.2344322344322,775.6410256410256,782.4908424908425,826.4102564102565,523.8095238095239,-0.393738,0.221008,0.996277,-4.613190,14.295654,4.246826,1,2,1,1,2,75.000000
2024-11-24 16:11:18.251,,,,,,,,,,,,,,,,,,,,,,,,,,,,,,,,,,,,,,/muse/elements/blink
2024-11-24 16:11:18.525,0.1070663602591028,0.5212922043834813,1.105468093610145,0.5009513259694072,0.5956375960178184,0.3343696532310349,0.6579314758037159,0.4855813487644119,0.9604086601026615,0.7392115575358329,0.6739479904756583,0.9263328176314308,0.7052344109432481,0.9137291619473138,0.678147980438129,0.9662085344223323,0.4869682900192567,0.840532098722072,0.4576472712824714,0.7426336560516036,707.5457875457876,809.8901098901099,821.1721611721612,775.2380952380953,218.7912087912088,-0.458984,0.253052,1.069824,11.230164,-2.751465,0.426178,1,2,1,1,2,75.000000
2024-11-24 16:11:18.966,,,,,,,,,,,,,,,,,,,,,,,,,,,,,,,,,,,,,,/muse/elements/blink
2024-11-24 16:11:19.028,0.1070663602591028,0.5212922043834813,1.105468093610145,0.5009513259694072,0.5956375960178184,0.3343696532310349,0.6579314758037159,0.4855813487644119,0.9604086601026615,0.7392115575358329,0.6739479904756583,0.9263328176314308,0.7052344109432481,0.9137291619473138,0.678147980438129,0.9662085344223323,0.4869682900192567,0.840532098722072,0.4576472712824714,0.7426336560516036,620.9157509157509,779.2673992673992,800.6227106227107,759.92673992674,5.238095238095238,-0.341309,0.160950,0.897339,3.581390,-2.467346,1.659851,1,2,1,1,2,75.000000
2024-11-24 16:11:19.227,,,,,,,,,,,,,,,,,,,,,,,,,,,,,,,,,,,,,,/muse/elements/blink
2024-11-24 16:11:19.525,0.1070663602591028,0.5212922043834813,1.105468093610145,0.5009513259694072,0.5956375960178184,0.3343696532310349,0.6579314758037159,0.4855813487644119,0.9604086601026615,0.7392115575358329,0.6739479904756583,0.9263328176314308,0.7052344109432481,0.9137291619473138,0.678147980438129,0.9662085344223323,0.4869682900192567,0.840532098722072,0.4576472712824714,0.7426336560516036,843.3333333333334,780.4761904761905,775.2380952380953,882.014652014652,1022.234432234432,-0.385132,0.196838,0.924438,1.831818,-3.843079,-9.585266,1,2,1,1,2,75.000000
2024-11-24 16:11:19.561,,,,,,,,,,,,,,,,,,,,,,,,,,,,,,,,,,,,,,/muse/elements/blink
