TimeStamp,Delta_TP9,Delta_AF7,Delta_AF8,Delta_TP10,Theta_TP9,Theta_AF7,Theta_AF8,Theta_TP10,Alpha_TP9,Alpha_AF7,Alpha_AF8,Alpha_TP10,Beta_TP9,Beta_AF7,Beta_AF8,Beta_TP10,Gamma_TP9,Gamma_AF7,Gamma_AF8,Gamma_TP10,RAW_TP9,RAW_AF7,RAW_AF8,RAW_TP10,AUX_RIGHT,Accelerometer_X,Accelerometer_Y,Accelerometer_Z,Gyro_X,Gyro_Y,Gyro_Z,HeadBandOn,HSI_TP9,HSI_AF7,HSI_AF8,HSI_TP10,Battery,Elements
2024-11-25 13:52:03.108,,,,,,,,,,,,,,,,,,,,,,,,,,,,,,,,,,,,,,/muse/event/connected Muse-D2D3
2024-11-25 13:52:03.155,,,,,,,,,,,,,,,,,,,,,,,,,,,,,,,,,,,,,,/muse/elements/blink
2024-11-25 13:52:03.266,,,,,,,,,,,,,,,,,,,,,,,,,,,,,,,,,,,,,,/muse/elements/blink
2024-11-25 13:52:03.608,0.1282925857180424,0.1973917716718881,0.5113922469413374,0.4935655459110553,0.2127569032801944,0.0007008129697842888,0.15348111025083,0.3060163268820991,0.2504130537521209,-0.01244438349834805,0.2968605837976494,0.5103165673227658,0.257210959671722,0.2922218684727058,0.03217648294657294,0.4965632854558847,-0.04848728711289734,0.0373265188577275,-0.1952036223403608,0.05420619737740138,805.8608058608058,801.025641025641,784.1025641025641,799.0109890109891,797.8021978021978,-0.454834,0.100403,0.902893,2.026215,-2.213135,0.904694,1,1,1,1,1,60.000000
2024-11-25 13:52:04.101,,,,,,,,,,,,,,,,,,,,,,,,,,,,,,,,,,,,,,/muse/elements/blink
2024-11-25 13:52:04.110,0.1845402702982183,0.2541271859607046,0.6844754696426919,0.5452286212499032,0.2623120223313195,-0.03816907542723755,0.2292930526340064,0.3239005299996787,0.2108496720531526,0.01667789260481733,0.2976318694376199,0.5067720132452114,0.2909825823639254,0.2716963616695577,0.05826000525081821,0.4929385615132687,-0.02203877688507802,0.1172843978456419,-0.1669687105199957,0.09591168678944562,851.3919413919414,800.6227106227107,784.1025641025641,837.2893772893773,684.981684981685,-0.457886,0.100037,0.900757,2.452393,-1.966400,-0.351410,1,1,1,1,1,60.000000
2024-11-25 13:52:04.609,0.1845402702982183,0.1964078478930817,0.7258130219680661,0.5452286212499032,0.2623120223313195,-0.1867137138057424,0.2724451308314471,0.3239005299996787,0.2108496720531526,0.1440723995620928,0.2954231176105411,0.5067720132452114,0.2909825823639254,0.2883688209487142,0.1115780566471542,0.4929385615132687,-0.02203877688507802,0.2484436807350834,-0.1451983632799428,0.09591168678944562,807.8754578754579,787.3260073260074,783.2967032967033,794.5787545787546,786.9230769230769,-0.456787,0.100464,0.907349,1.996307,-1.480408,1.420593,1,1,1,1,1,60.000000
2024-11-25 13:52:05.109,0.1845402702982183,0.1678921896711502,0.6004301384761855,0.5452286212499032,0.2623120223313195,-0.2933307830600543,0.1347164643765452,0.3239005299996787,0.2108496720531526,0.4955829322636979,0.132493708510059,0.5067720132452114,0.2909825823639254,0.3331521965087625,0.234470940232491,0.4929385615132687,-0.02203877688507802,0.3192097535496153,0.02400794166913958,0.09591168678944562,802.6373626373627,796.996336996337,796.996336996337,804.2490842490843,675.7142857142858,-0.464294,0.106384,0.898010,2.422485,-1.914062,-0.732727,1,1,1,1,1,60.000000
2024-11-25 13:52:05.610,0.1845402702982183,0.09966169718468848,0.3524169031739996,0.5452286212499032,0.2623120223313195,-0.2160089118655605,0.03237187353667354,0.3239005299996787,0.2108496720531526,0.4722422564377958,0.06168584012674515,0.5067720132452114,0.2909825823639254,0.3046548941678135,0.2944346265789798,0.4929385615132687,-0.02203877688507802,0.2991325718011751,0.1133266301594106,0.09591168678944562,811.0989010989011,801.8315018315019,794.5787545787546,803.040293040293,710.7692307692308,-0.461060,0.099548,0.899475,2.272949,-0.000000,0.979462,1,2,1,1,2,60.000000
2024-11-25 13:52:06.117,0.1318288107634806,0.0546523303976044,0.1611601244387356,0.8023271213689834,-0.2200677910189263,-0.2560554723104629,-0.08070935765617704,0.2655470060884911,0.2007133902625685,0.4768199555405925,0.06929371514515065,0.4990642430784303,0.1718501516607372,0.2998633662233575,0.2429465440963892,0.3632844345893262,0.1797421007625766,0.2789977010744884,0.08368844093442962,0.1416505684523121,799.8168498168499,804.6520146520147,803.4432234432235,793.3699633699634,719.2307692307693,-0.468628,0.119202,0.877991,2.033691,-0.800018,0.149536,1,1,1,1,1,60.000000
2024-11-25 13:52:06.609,0.2756673190560527,-0.1090286316371633,-0.09643529727131216,0.6100475229836495,-0.114056360879805,-0.3262090349887072,-0.2178370880723288,0.126404321419184,0.282598181178866,0.3876112336451324,0.1458099793270989,0.6344587013424041,0.1853005905845906,0.3520622871747622,0.1111048233664613,0.3439503703527125,0.0574381021556215,0.3194533940354805,0.0417424992102596,0.07098816349875628,790.952380952381,806.2637362637363,798.6080586080586,801.8315018315019,749.4505494505495,-0.468201,0.098938,0.892029,3.558960,-1.876678,1.203766,1,1,1,1,1,60.000000
2024-11-25 13:52:07.108,0.2988339683507092,-0.1798061384609445,-0.3246442893721962,0.6522862825485117,-0.09764721658930441,-0.1907659761130002,-0.1995593830646818,0.01850258400291212,0.322304814771215,-0.02429068149835668,0.1146399653994176,0.5705330597310722,0.1868924469334263,0.3984696746338436,-0.08808511731087813,0.4394465504470473,0.01989575973030885,0.3168047066375434,-0.09426630593950867,0.0115542827662666,789.7435897435897,797.8021978021978,799.4139194139194,801.025641025641,657.1794871794872,-0.472229,0.106201,0.899109,1.592560,-2.773895,0.381317,1,1,1,1,1,60.000000
2024-11-25 13:52:07.609,0.3568035068562613,-0.1678952606903705,-0.2062377087006805,0.8318085652843169,0.09492850022228314,-0.1042279539218329,-0.12102292551776,0.3173954812826622,0.3254576449080414,0.06282581635517211,0.110107035262445,0.6933031609026741,0.1853250505660924,0.3744591715303819,-0.01321482575595404,0.4484786885160369,-0.0596904220529682,0.2947347940821683,-0.0991244584142893,-0.1162776407437962,804.6520146520147,797.8021978021978,800.6227106227107,793.7728937728938,605.2014652014652,-0.486206,0.127563,0.885071,1.278534,-1.667328,2.594452,1,1,1,1,1,60.000000
2024-11-25 13:52:07.763,,,,,,,,,,,,,,,,,,,,,,,,,,,,,,,,,,,,,,/muse/elements/blink
2024-11-25 13:52:08.109,0.352754056212832,0.07957849064522034,0.2380519628121709,1.002693587604548,0.1566474941732416,-0.01403294169375936,-0.1305318313374635,0.4594396072741369,0.2396176303888684,0.1102827285642952,0.02083363415172941,0.6747270225894383,0.1794125562584137,0.3202264882266163,-0.02804574937427578,0.5079182957026038,-0.05222707142389346,0.1925463778729079,-0.1765000125308423,-0.156275985728737,732.1245421245421,789.3406593406594,793.3699633699634,734.5421245421246,778.0586080586081,-0.482361,0.120483,0.872192,4.381409,-2.086029,0.014954,1,1,1,1,1,55.000000
2024-11-25 13:52:08.271,,,,,,,,,,,,,,,,,,,,,,,,,,,,,,,,,,,,,,/muse/elements/blink
2024-11-25 13:52:08.612,0.370920152698547,0.4509758729586075,0.4164405208070568,1.079095443850007,0.3349156507412541,0.0118817024296246,0.06038284255672595,0.6855182689415538,0.1596016945529446,0.1044081633685204,0.143627117639721,0.6218509456069745,0.1661438365999458,0.3117346317364763,-0.08042147845541221,0.2829326030633779,-0.04617332652464761,0.08971842746789099,-0.1952065206685268,-0.1652126827350212,805.8608058608058,801.8315018315019,803.4432234432235,779.2673992673992,801.025641025641,-0.534668,0.058228,0.868225,-0.807495,3.887939,2.803802,1,1,1,1,1,55.000000
2024-11-25 13:52:09.117,0.370920152698547,0.7555261216739985,0.424976255699454,1.079095443850007,0.3349156507412541,0.1943685766132293,0.1264021955418316,0.6855182689415538,0.1596016945529446,0.1161500097619105,0.143627117639721,0.6218509456069745,0.1661438365999458,0.3278077078676407,-0.1835972098431222,0.2829326030633779,-0.04617332652464761,0.1767113096929946,-0.208940112352364,-0.1652126827350212,820.7692307692308,803.8461538461539,810.6959706959707,804.2490842490843,710.7692307692308,-0.585388,0.060364,0.977661,2.669220,1.061707,-0.949554,1,1,1,1,1,55.000000
2024-11-25 13:52:09.595,,,,,,,,,,,,,,,,,,,,,,,,,,,,,,,,,,,,,,/muse/elements/blink
2024-11-25 13:52:09.608,0.370920152698547,0.9482323073455623,0.9016083049769928,1.079095443850007,0.3349156507412541,0.3199415587833385,0.3820508189587573,0.6855182689415538,0.1596016945529446,0.08790362609343209,0.348188425244067,0.6218509456069745,0.1661438365999458,0.2980815042166422,-0.1760713603247592,0.2829326030633779,-0.04617332652464761,0.2489814292984091,-0.2035057551820271,-0.1652126827350212,840.9157509157509,807.4725274725275,780.4761904761905,814.7252747252747,648.7179487179487,-0.470093,0.093323,0.853271,0.441132,-4.665527,0.239258,1,1,1,1,1,55.000000
2024-11-25 13:52:10.110,0.370920152698547,1.067323233069484,0.9960101151781012,1.079095443850007,0.3349156507412541,0.4232108388538432,0.4352872742342286,0.6855182689415538,0.1596016945529446,0.08131665865961626,0.2603879015416786,0.6218509456069745,0.1661438365999458,0.2588793808243744,-0.2029418578636362,0.2829326030633779,-0.04617332652464761,0.4122995033088842,-0.2368216881552153,-0.1652126827350212,794.1758241758242,784.9084249084249,790.1465201465202,833.6630036630037,1104.432234432235,-0.554260,0.017517,0.889221,1.502838,-5.144043,1.428070,1,1,1,1,1,55.000000
2024-11-25 13:52:10.389,,,,,,,,,,,,,,,,,,,,,,,,,,,,,,,,,,,,,,/muse/elements/blink
2024-11-25 13:52:10.609,0.370920152698547,1.057554202399938,1.318986706023605,1.079095443850007,0.3349156507412541,0.4164729439539253,0.5937615705687561,0.6855182689415538,0.1596016945529446,0.08131665865961626,0.2583165872796628,0.6218509456069745,0.1661438365999458,0.2132783058544996,-0.05623099002261897,0.2829326030633779,-0.04617332652464761,0.4812666968037569,-0.2079034931198668,-0.1652126827350212,849.7802197802198,808.2783882783883,844.5421245421246,905.7875457875458,1043.589743589744,-0.617615,0.078857,1.125244,0.919647,0.388794,-1.398163,1,2,1,1,2,55.000000
2024-11-25 13:52:11.109,0.370920152698547,1.057554202399938,1.318986706023605,1.079095443850007,0.3349156507412541,0.4164729439539253,0.5937615705687561,0.6855182689415538,0.1596016945529446,0.08131665865961626,0.2583165872796628,0.6218509456069745,0.1661438365999458,0.2132783058544996,-0.05623099002261897,0.2829326030633779,-0.04617332652464761,0.4812666968037569,-0.2079034931198668,-0.1652126827350212,790.5494505494506,784.1025641025641,785.7142857142858,830.4395604395604,807.0695970695971,-0.530701,0.132812,0.873962,1.315918,-2.758942,7.416992,1,2,1,1,2,55.000000
2024-11-25 13:52:11.609,0.370920152698547,1.057554202399938,1.318986706023605,1.079095443850007,0.3349156507412541,0.4164729439539253,0.5937615705687561,0.6855182689415538,0.1596016945529446,0.08131665865961626,0.2583165872796628,0.6218509456069745,0.1661438365999458,0.2132783058544996,-0.05623099002261897,0.2829326030633779,-0.04617332652464761,0.4812666968037569,-0.2079034931198668,-0.1652126827350212,785.3113553113553,789.3406593406594,775.6410256410256,687.8021978021978,455.3113553113553,-0.431763,0.017029,0.792542,5.779572,12.433929,0.717773,1,2,1,1,2,55.000000
2024-11-25 13:52:12.109,0.370920152698547,1.057554202399938,1.318986706023605,1.079095443850007,0.3349156507412541,0.4164729439539253,0.5937615705687561,0.6855182689415538,0.1596016945529446,0.08131665865961626,0.2583165872796628,0.6218509456069745,0.1661438365999458,0.2132783058544996,-0.05623099002261897,0.2829326030633779,-0.04617332652464761,0.4812666968037569,-0.2079034931198668,-0.1652126827350212,797.8021978021978,808.2783882783883,778.4615384615385,727.6923076923077,715.6043956043957,-0.425598,0.173584,0.868286,5.136566,-2.818756,-8.777771,1,2,1,1,2,55.000000
2024-11-25 13:52:12.609,0.370920152698547,1.057554202399938,1.318986706023605,1.079095443850007,0.3349156507412541,0.4164729439539253,0.5937615705687561,0.6855182689415538,0.1596016945529446,0.08131665865961626,0.2583165872796628,0.6218509456069745,0.1661438365999458,0.2132783058544996,-0.05623099002261897,0.2829326030633779,-0.04617332652464761,0.4812666968037569,-0.2079034931198668,-0.1652126827350212,796.1904761904763,780.4761904761905,821.978021978022,775.6410256410256,839.3040293040293,-0.463562,-0.012573,0.917236,-0.665436,-4.515991,4.501038,1,2,1,1,2,55.000000
2024-11-25 13:52:13.111,0.370920152698547,1.057554202399938,1.318986706023605,1.079095443850007,0.3349156507412541,0.4164729439539253,0.5937615705687561,0.6855182689415538,0.1596016945529446,0.08131665865961626,0.2583165872796628,0.6218509456069745,0.1661438365999458,0.2132783058544996,-0.05623099002261897,0.2829326030633779,-0.04617332652464761,0.4812666968037569,-0.2079034931198668,-0.1652126827350212,861.0622710622711,828.8278388278388,810.6959706959707,881.6117216117217,635.0183150183151,-0.576294,0.037354,0.985474,-5.293579,-3.603821,10.766602,1,2,1,1,2,55.000000
2024-11-25 13:52:13.608,0.370920152698547,1.258532522339328,1.318986706023605,1.079095443850007,0.3349156507412541,0.8858311881284376,0.5937615705687561,0.6855182689415538,0.1596016945529446,0.7463430236762877,0.2583165872796628,0.6218509456069745,0.1661438365999458,0.5151676152671711,-0.05623099002261897,0.2829326030633779,-0.04617332652464761,0.1994041079676835,-0.2079034931198668,-0.1652126827350212,814.3223443223443,827.2161172161173,832.4542124542124,830.0366300366301,722.0512820512821,-0.608276,0.164978,0.890015,8.919830,0.336456,0.493469,1,2,1,1,2,55.000000
2024-11-25 13:52:13.758,,,,,,,,,,,,,,,,,,,,,,,,,,,,,,,,,,,,,,/muse/elements/blink
2024-11-25 13:52:14.109,0.370920152698547,1.258532522339328,1.318986706023605,1.079095443850007,0.3349156507412541,0.8858311881284376,0.5937615705687561,0.6855182689415538,0.1596016945529446,0.7463430236762877,0.2583165872796628,0.6218509456069745,0.1661438365999458,0.5151676152671711,-0.05623099002261897,0.2829326030633779,-0.04617332652464761,0.1994041079676835,-0.2079034931198668,-0.1652126827350212,745.0183150183151,773.2234432234433,761.941391941392,674.1025641025641,416.6300366300367,-0.488098,0.022095,0.745483,5.899200,3.558960,-1.600037,1,2,1,1,2,55.000000
2024-11-25 13:52:14.609,0.370920152698547,1.285360139319065,1.318986706023605,1.079095443850007,0.3349156507412541,0.9054153501515679,0.5937615705687561,0.6855182689415538,0.1596016945529446,0.7463430236762877,0.2583165872796628,0.6218509456069745,0.1661438365999458,0.5543668082303163,-0.05623099002261897,0.2829326030633779,-0.04617332652464761,0.2357094188344046,-0.2079034931198668,-0.1652126827350212,652.7472527472528,802.2344322344322,752.6739926739926,645.8974358974359,694.6520146520147,-0.400696,0.121887,0.711121,0.545807,-4.628143,-7.349701,1,2,1,1,2,55.000000
2024-11-25 13:52:14.750,,,,,,,,,,,,,,,,,,,,,,,,,,,,,,,,,,,,,,/muse/elements/blink
2024-11-25 13:52:15.112,0.370920152698547,1.285360139319065,1.318986706023605,1.079095443850007,0.3349156507412541,0.9054153501515679,0.5937615705687561,0.6855182689415538,0.1596016945529446,0.7463430236762877,0.2583165872796628,0.6218509456069745,0.1661438365999458,0.5543668082303163,-0.05623099002261897,0.2829326030633779,-0.04617332652464761,0.2357094188344046,-0.2079034931198668,-0.1652126827350212,843.3333333333334,749.4505494505495,798.6080586080586,909.0109890109891,1255.128205128205,-0.395935,0.053223,0.752441,0.089722,-15.035858,2.736511,1,2,1,1,2,55.000000
2024-11-25 13:52:15.169,,,,,,,,,,,,,,,,,,,,,,,,,,,,,,,,,,,,,,/muse/elements/blink
2024-11-25 13:52:15.614,0.370920152698547,1.285360139319065,1.318986706023605,1.079095443850007,0.3349156507412541,0.9054153501515679,0.5937615705687561,0.6855182689415538,0.1596016945529446,0.7463430236762877,0.2583165872796628,0.6218509456069745,0.1661438365999458,0.5543668082303163,-0.05623099002261897,0.2829326030633779,-0.04617332652464761,0.2357094188344046,-0.2079034931198668,-0.1652126827350212,828.4249084249085,813.5164835164835,832.8571428571429,857.8388278388279,1176.153846153846,-0.503662,0.217407,0.967468,5.585175,-1.996307,0.448608,1,2,1,1,2,55.000000
2024-11-25 13:52:15.981,,,,,,,,,,,,,,,,,,,,,,,,,,,,,,,,,,,,,,/muse/elements/blink
2024-11-25 13:52:16.109,0.370920152698547,1.285360139319065,1.318986706023605,1.079095443850007,0.3349156507412541,0.9054153501515679,0.5937615705687561,0.6855182689415538,0.1596016945529446,0.7463430236762877,0.2583165872796628,0.6218509456069745,0.1661438365999458,0.5543668082303163,-0.05623099002261897,0.2829326030633779,-0.04617332652464761,0.2357094188344046,-0.2079034931198668,-0.1652126827350212,909.0109890109891,826.007326007326,875.5677655677656,1015.787545787546,867.9120879120879,-0.525024,0.046631,0.835327,0.231781,9.241333,-2.332764,1,2,1,1,2,55.000000
2024-11-25 13:52:16.609,0.370920152698547,1.285360139319065,1.318986706023605,1.079095443850007,0.3349156507412541,0.9054153501515679,0.5937615705687561,0.6855182689415538,0.1596016945529446,0.7463430236762877,0.2583165872796628,0.6218509456069745,0.1661438365999458,0.5543668082303163,-0.05623099002261897,0.2829326030633779,-0.04617332652464761,0.2357094188344046,-0.2079034931198668,-0.1652126827350212,871.941391941392,850.1831501831502,855.4212454212454,909.0109890109891,745.4212454212454,-0.570190,0.069885,0.959534,3.566437,0.269165,-2.078552,1,2,1,1,2,55.000000
2024-11-25 13:52:17.109,0.370920152698547,1.285360139319065,1.318986706023605,1.079095443850007,0.3349156507412541,0.9054153501515679,0.5937615705687561,0.6855182689415538,0.1596016945529446,0.7463430236762877,0.2583165872796628,0.6218509456069745,0.1661438365999458,0.5543668082303163,-0.05623099002261897,0.2829326030633779,-0.04617332652464761,0.2357094188344046,-0.2079034931198668,-0.1652126827350212,880.8058608058608,830.8424908424909,838.0952380952381,912.6373626373627,1060.10989010989,-0.664062,0.144653,0.977600,-0.538330,-3.386993,6.504822,1,2,1,1,2,55.000000
2024-11-25 13:52:17.191,,,,,,,,,,,,,,,,,,,,,,,,,,,,,,,,,,,,,,/muse/elements/blink
2024-11-25 13:52:17.616,0.370920152698547,1.285360139319065,1.318986706023605,1.079095443850007,0.3349156507412541,0.9054153501515679,0.5937615705687561,0.6855182689415538,0.1596016945529446,0.7463430236762877,0.2583165872796628,0.6218509456069745,0.1661438365999458,0.5543668082303163,-0.05623099002261897,0.2829326030633779,-0.04617332652464761,0.2357094188344046,-0.2079034931198668,-0.1652126827350212,755.8974358974359,757.9120879120879,726.0805860805862,838.0952380952381,1075.018315018315,-0.544189,0.009644,0.856873,3.215027,-4.104767,0.149536,1,2,1,1,2,55.000000
2024-11-25 13:52:18.109,0.370920152698547,1.285360139319065,1.318986706023605,1.079095443850007,0.3349156507412541,0.9054153501515679,0.5937615705687561,0.6855182689415538,0.1596016945529446,0.7463430236762877,0.2583165872796628,0.6218509456069745,0.1661438365999458,0.5543668082303163,-0.05623099002261897,0.2829326030633779,-0.04617332652464761,0.2357094188344046,-0.2079034931198668,-0.1652126827350212,801.8315018315019,743.4065934065934,751.0622710622711,775.6410256410256,742.6007326007326,-0.461975,0.131226,0.723816,-1.465454,-0.613098,0.493469,1,2,1,1,2,55.000000
2024-11-25 13:52:18.245,,,,,,,,,,,,,,,,,,,,,,,,,,,,,,,,,,,,,,/muse/elements/blink
2024-11-25 13:52:18.608,0.370920152698547,1.285360139319065,1.318986706023605,1.079095443850007,0.3349156507412541,0.9054153501515679,0.5937615705687561,0.6855182689415538,0.1596016945529446,0.7463430236762877,0.2583165872796628,0.6218509456069745,0.1661438365999458,0.5543668082303163,-0.05623099002261897,0.2829326030633779,-0.04617332652464761,0.2357094188344046,-0.2079034931198668,-0.1652126827350212,769.5970695970697,800.2197802197802,772.8205128205128,741.7948717948718,745.0183150183151,-0.377014,0.030334,0.740784,2.093506,-1.315918,1.727142,1,2,1,1,2,55.000000
2024-11-25 13:52:18.751,,,,,,,,,,,,,,,,,,,,,,,,,,,,,,,,,,,,,,/muse/elements/blink
2024-11-25 13:52:19.115,0.370920152698547,1.285360139319065,1.318986706023605,1.079095443850007,0.3349156507412541,0.9054153501515679,0.5937615705687561,0.6855182689415538,0.1596016945529446,0.7463430236762877,0.2583165872796628,0.6218509456069745,0.1661438365999458,0.5543668082303163,-0.05623099002261897,0.2829326030633779,-0.04617332652464761,0.2357094188344046,-0.2079034931198668,-0.1652126827350212,782.0879120879121,791.3553113553114,760.7326007326008,723.2600732600732,880.4029304029305,-0.503174,0.165466,0.934387,7.596436,-4.134674,1.846771,1,2,1,1,2,55.000000
2024-11-25 13:52:19.438,,,,,,,,,,,,,,,,,,,,,,,,,,,,,,,,,,,,,,/muse/elements/blink
2024-11-25 13:52:19.609,0.370920152698547,1.285360139319065,1.318986706023605,1.079095443850007,0.3349156507412541,0.9054153501515679,0.5937615705687561,0.6855182689415538,0.1596016945529446,0.7463430236762877,0.2583165872796628,0.6218509456069745,0.1661438365999458,0.5543668082303163,-0.05623099002261897,0.2829326030633779,-0.04617332652464761,0.2357094188344046,-0.2079034931198668,-0.1652126827350212,909.8168498168499,831.6483516483516,855.0183150183151,1221.282051282051,1639.120879120879,-0.572266,0.061829,1.043091,4.052429,4.209442,2.362671,1,2,1,1,2,55.000000
2024-11-25 13:52:20.108,0.370920152698547,1.285360139319065,1.318986706023605,1.079095443850007,0.3349156507412541,0.9054153501515679,0.5937615705687561,0.6855182689415538,0.1596016945529446,0.7463430236762877,0.2583165872796628,0.6218509456069745,0.1661438365999458,0.5543668082303163,-0.05623099002261897,0.2829326030633779,-0.04617332652464761,0.2357094188344046,-0.2079034931198668,-0.1652126827350212,902.1611721611722,874.7619047619048,885.2380952380953,823.5897435897436,273.5897435897436,-0.508972,0.121155,0.879028,-3.065491,3.013153,2.459869,1,2,1,1,2,55.000000
2024-11-25 13:52:20.608,0.370920152698547,1.285360139319065,1.318986706023605,1.079095443850007,0.3349156507412541,0.9054153501515679,0.5937615705687561,0.6855182689415538,0.1596016945529446,0.7463430236762877,0.2583165872796628,0.6218509456069745,0.1661438365999458,0.5543668082303163,-0.05623099002261897,0.2829326030633779,-0.04617332652464761,0.2357094188344046,-0.2079034931198668,-0.1652126827350212,917.8754578754579,831.6483516483516,853.0036630036631,893.2967032967033,166.8131868131868,-0.626892,0.130005,0.954895,-0.590668,-5.046844,1.988831,1,2,1,1,2,55.000000
2024-11-25 13:52:21.069,,,,,,,,,,,,,,,,,,,,,,,,,,,,,,,,,,,,,,/muse/elements/blink
2024-11-25 13:52:21.109,0.370920152698547,1.285360139319065,1.318986706023605,1.079095443850007,0.3349156507412541,0.9054153501515679,0.5937615705687561,0.6855182689415538,0.1596016945529446,0.7463430236762877,0.2583165872796628,0.6218509456069745,0.1661438365999458,0.5543668082303163,-0.05623099002261897,0.2829326030633779,-0.04617332652464761,0.2357094188344046,-0.2079034931198668,-0.1652126827350212,856.2271062271062,757.5091575091575,801.025641025641,1070.18315018315,1161.648351648352,-0.621582,0.046753,1.014648,7.402039,0.216827,-6.160889,1,2,1,1,2,55.000000
2024-11-25 13:52:21.608,0.370920152698547,1.285360139319065,1.318986706023605,1.079095443850007,0.3349156507412541,0.9054153501515679,0.5937615705687561,0.6855182689415538,0.1596016945529446,0.7463430236762877,0.2583165872796628,0.6218509456069745,0.1661438365999458,0.5543668082303163,-0.05623099002261897,0.2829326030633779,-0.04617332652464761,0.2357094188344046,-0.2079034931198668,-0.1652126827350212,780.8791208791209,778.4615384615385,771.2087912087912,784.5054945054945,6.043956043956044,-0.503967,0.206543,0.868530,4.927216,-2.691650,1.158905,1,2,1,1,4,55.000000
2024-11-25 13:52:21.709,,,,,,,,,,,,,,,,,,,,,,,,,,,,,,,,,,,,,,/muse/elements/blink
2024-11-25 13:52:22.063,,,,,,,,,,,,,,,,,,,,,,,,,,,,,,,,,,,,,,/muse/elements/blink
2024-11-25 13:52:22.113,0.370920152698547,1.285360139319065,1.318986706023605,1.079095443850007,0.3349156507412541,0.9054153501515679,0.5937615705687561,0.6855182689415538,0.1596016945529446,0.7463430236762877,0.2583165872796628,0.6218509456069745,0.1661438365999458,0.5543668082303163,-0.05623099002261897,0.2829326030633779,-0.04617332652464761,0.2357094188344046,-0.2079034931198668,-0.1652126827350212,708.3516483516484,778.8644688644689,718.4249084249085,508.4981684981685,0,-0.463440,0.027466,0.676331,2.915955,-5.921631,0.216827,1,2,1,1,4,55.000000
2024-11-25 13:52:22.609,0.370920152698547,1.285360139319065,1.318986706023605,1.079095443850007,0.3349156507412541,0.9054153501515679,0.5937615705687561,0.6855182689415538,0.1596016945529446,0.7463430236762877,0.2583165872796628,0.6218509456069745,0.1661438365999458,0.5543668082303163,-0.05623099002261897,0.2829326030633779,-0.04617332652464761,0.2357094188344046,-0.2079034931198668,-0.1652126827350212,563.2967032967033,752.2710622710623,734.9450549450549,448.8644688644689,18.53479853479854,-0.391541,0.074829,0.641052,1.996307,-1.211243,-6.153412,1,2,1,1,4,55.000000
2024-11-25 13:52:22.770,,,,,,,,,,,,,,,,,,,,,,,,,,,,,,,,,,,,,,/muse/elements/blink
2024-11-25 13:52:23.110,0.370920152698547,1.285360139319065,1.318986706023605,1.079095443850007,0.3349156507412541,0.9054153501515679,0.5937615705687561,0.6855182689415538,0.1596016945529446,0.7463430236762877,0.2583165872796628,0.6218509456069745,0.1661438365999458,0.5543668082303163,-0.05623099002261897,0.2829326030633779,-0.04617332652464761,0.2357094188344046,-0.2079034931198668,-0.1652126827350212,795.3846153846154,783.2967032967033,786.9230769230769,763.5531135531136,365.4578754578754,-0.312561,-0.001038,0.649414,2.601929,-2.901001,5.293579,1,2,1,1,4,55.000000
2024-11-25 13:52:23.372,,,,,,,,,,,,,,,,,,,,,,,,,,,,,,,,,,,,,,/muse/elements/blink
2024-11-25 13:52:23.609,0.370920152698547,1.285360139319065,1.318986706023605,1.079095443850007,0.3349156507412541,0.9054153501515679,0.5937615705687561,0.6855182689415538,0.1596016945529446,0.7463430236762877,0.2583165872796628,0.6218509456069745,0.1661438365999458,0.5543668082303163,-0.05623099002261897,0.2829326030633779,-0.04617332652464761,0.2357094188344046,-0.2079034931198668,-0.1652126827350212,787.7289377289378,820.7692307692308,777.2527472527473,615.2747252747253,261.0989010989011,-0.361084,0.122803,0.719177,1.929016,-2.661743,-3.566437,1,2,1,1,4,55.000000
2024-11-25 13:52:24.109,0.370920152698547,1.285360139319065,1.318986706023605,1.079095443850007,0.3349156507412541,0.9054153501515679,0.5937615705687561,0.6855182689415538,0.1596016945529446,0.7463430236762877,0.2583165872796628,0.6218509456069745,0.1661438365999458,0.5543668082303163,-0.05623099002261897,0.2829326030633779,-0.04617332652464761,0.2357094188344046,-0.2079034931198668,-0.1652126827350212,726.0805860805862,819.1575091575091,856.6300366300367,774.0293040293041,1289.78021978022,-0.424377,0.062195,0.887268,-0.441132,-8.665619,6.923523,1,2,1,1,4,55.000000
2024-11-25 13:52:24.319,,,,,,,,,,,,,,,,,,,,,,,,,,,,,,,,,,,,,,/muse/elements/blink
2024-11-25 13:52:24.612,0.370920152698547,1.285360139319065,1.318986706023605,1.079095443850007,0.3349156507412541,0.9054153501515679,0.5937615705687561,0.6855182689415538,0.1596016945529446,0.7463430236762877,0.2583165872796628,0.6218509456069745,0.1661438365999458,0.5543668082303163,-0.05623099002261897,0.2829326030633779,-0.04617332652464761,0.2357094188344046,-0.2079034931198668,-0.1652126827350212,904.1758241758242,830.0366300366301,805.8608058608058,1324.029304029304,1627.032967032967,-0.568970,0.175842,0.925842,7.252502,1.016846,-0.702820,1,2,1,1,4,55.000000
2024-11-25 13:52:24.825,,,,,,,,,,,,,,,,,,,,,,,,,,,,,,,,,,,,,,/muse/elements/blink
2024-11-25 13:52:25.109,0.370920152698547,1.285360139319065,1.318986706023605,1.079095443850007,0.3349156507412541,0.9054153501515679,0.5937615705687561,0.6855182689415538,0.1596016945529446,0.7463430236762877,0.2583165872796628,0.6218509456069745,0.1661438365999458,0.5543668082303163,-0.05623099002261897,0.2829326030633779,-0.04617332652464761,0.2357094188344046,-0.2079034931198668,-0.1652126827350212,848.974358974359,800.6227106227107,816.7399267399268,921.5018315018315,518.1684981684982,-0.501648,0.149231,0.954834,1.181335,-7.738495,-0.216827,1,2,1,1,4,55.000000
2024-11-25 13:52:25.111,,,,,,,,,,,,,,,,,,,,,,,,,,,,,,,,,,,,,,/muse/elements/blink
2024-11-25 13:52:25.352,,,,,,,,,,,,,,,,,,,,,,,,,,,,,,,,,,,,,,/muse/elements/blink
2024-11-25 13:52:25.609,0.370920152698547,1.285360139319065,1.318986706023605,1.079095443850007,0.3349156507412541,0.9054153501515679,0.5937615705687561,0.6855182689415538,0.1596016945529446,0.7463430236762877,0.2583165872796628,0.6218509456069745,0.1661438365999458,0.5543668082303163,-0.05623099002261897,0.2829326030633779,-0.04617332652464761,0.2357094188344046,-0.2079034931198668,-0.1652126827350212,801.8315018315019,792.1611721611722,790.5494505494506,770.8058608058608,0,-0.549194,0.043457,0.894531,1.413116,-3.170166,-4.396362,1,2,1,1,4,55.000000
2024-11-25 13:52:25.614,,,,,,,,,,,,,,,,,,,,,,,,,,,,,,,,,,,,,,/muse/elements/blink
2024-11-25 13:52:26.048,,,,,,,,,,,,,,,,,,,,,,,,,,,,,,,,,,,,,,/muse/elements/blink
2024-11-25 13:52:26.109,0.370920152698547,1.285360139319065,1.318986706023605,1.079095443850007,0.3349156507412541,0.9054153501515679,0.5937615705687561,0.6855182689415538,0.1596016945529446,0.7463430236762877,0.2583165872796628,0.6218509456069745,0.1661438365999458,0.5543668082303163,-0.05623099002261897,0.2829326030633779,-0.04617332652464761,0.2357094188344046,-0.2079034931198668,-0.1652126827350212,725.2747252747253,791.3553113553114,768.3882783882784,575.3846153846154,0,-0.430725,0.156677,0.784729,6.273041,1.876678,-4.620667,1,2,1,1,4,55.000000
2024-11-25 13:52:26.331,,,,,,,,,,,,,,,,,,,,,,,,,,,,,,,,,,,,,,/muse/elements/blink
2024-11-25 13:52:26.609,0.370920152698547,1.285360139319065,1.318986706023605,1.079095443850007,0.3349156507412541,0.9054153501515679,0.5937615705687561,0.6855182689415538,0.1596016945529446,0.7463430236762877,0.2583165872796628,0.6218509456069745,0.1661438365999458,0.5543668082303163,-0.05623099002261897,0.2829326030633779,-0.04617332652464761,0.2357094188344046,-0.2079034931198668,-0.1652126827350212,708.3516483516484,788.9377289377289,761.5384615384615,396.8864468864469,0,-0.434814,0.051575,0.749634,-1.914062,-0.314026,5.944061,1,2,1,1,4,55.000000
2024-11-25 13:52:27.109,0.370920152698547,1.285360139319065,1.318986706023605,1.079095443850007,0.3349156507412541,0.9054153501515679,0.5937615705687561,0.6855182689415538,0.1596016945529446,0.7463430236762877,0.2583165872796628,0.6218509456069745,0.1661438365999458,0.5543668082303163,-0.05623099002261897,0.2829326030633779,-0.04617332652464761,0.2357094188344046,-0.2079034931198668,-0.1652126827350212,680.5494505494506,758.3150183150184,747.4358974358975,562.893772893773,1400.989010989011,-0.425781,0.131348,0.770081,7.626343,-10.190887,-6.848755,1,2,1,1,4,55.000000
2024-11-25 13:52:27.181,,,,,,,,,,,,,,,,,,,,,,,,,,,,,,,,,,,,,,/muse/elements/blink
2024-11-25 13:52:27.442,,,,,,,,,,,,,,,,,,,,,,,,,,,,,,,,,,,,,,/muse/elements/blink
2024-11-25 13:52:27.614,0.370920152698547,1.285360139319065,1.318986706023605,1.079095443850007,0.3349156507412541,0.9054153501515679,0.5937615705687561,0.6855182689415538,0.1596016945529446,0.7463430236762877,0.2583165872796628,0.6218509456069745,0.1661438365999458,0.5543668082303163,-0.05623099002261897,0.2829326030633779,-0.04617332652464761,0.2357094188344046,-0.2079034931198668,-0.1652126827350212,772.8205128205128,799.4139194139194,812.7106227106227,876.7765567765568,1636.703296703297,-0.515259,0.036621,0.983154,-1.555176,-4.575806,-6.130981,1,2,1,1,4,55.000000
2024-11-25 13:52:27.877,,,,,,,,,,,,,,,,,,,,,,,,,,,,,,,,,,,,,,/muse/elements/blink
2024-11-25 13:52:28.053,,,,,,,,,,,,,,,,,,,,,,,,,,,,,,,,,,,,,,/muse/elements/blink
2024-11-25 13:52:28.109,0.370920152698547,1.285360139319065,1.318986706023605,1.079095443850007,0.3349156507412541,0.9054153501515679,0.5937615705687561,0.6855182689415538,0.1596016945529446,0.7463430236762877,0.2583165872796628,0.6218509456069745,0.1661438365999458,0.5543668082303163,-0.05623099002261897,0.2829326030633779,-0.04617332652464761,0.2357094188344046,-0.2079034931198668,-0.1652126827350212,927.948717948718,855.0183150183151,869.1208791208792,975.4945054945056,615.6776556776557,-0.568542,0.077393,1.061646,-2.923431,-5.787048,-1.016846,1,2,1,1,4,55.000000
2024-11-25 13:52:28.249,,,,,,,,,,,,,,,,,,,,,,,,,,,,,,,,,,,,,,/muse/elements/jaw_clench
2024-11-25 13:52:28.487,,,,,,,,,,,,,,,,,,,,,,,,,,,,,,,,,,,,,,/muse/elements/blink
2024-11-25 13:52:28.609,0.370920152698547,1.285360139319065,1.318986706023605,1.079095443850007,0.3349156507412541,0.9054153501515679,0.5937615705687561,0.6855182689415538,0.1596016945529446,0.7463430236762877,0.2583165872796628,0.6218509456069745,0.1661438365999458,0.5543668082303163,-0.05623099002261897,0.2829326030633779,-0.04617332652464761,0.2357094188344046,-0.2079034931198668,-0.1652126827350212,782.0879120879121,763.956043956044,697.8754578754579,676.1172161172161,619.7069597069598,-0.655151,0.159790,1.068298,3.259888,-0.800018,6.826324,1,2,1,1,4,55.000000
2024-11-25 13:52:28.852,,,,,,,,,,,,,,,,,,,,,,,,,,,,,,,,,,,,,,/muse/elements/blink
2024-11-25 13:52:29.109,0.370920152698547,1.285360139319065,1.318986706023605,1.079095443850007,0.3349156507412541,0.9054153501515679,0.5937615705687561,0.6855182689415538,0.1596016945529446,0.7463430236762877,0.2583165872796628,0.6218509456069745,0.1661438365999458,0.5543668082303163,-0.05623099002261897,0.2829326030633779,-0.04617332652464761,0.2357094188344046,-0.2079034931198668,-0.1652126827350212,792.967032967033,747.4358974358975,725.6776556776557,974.2857142857143,1282.124542124542,-0.524841,-0.009216,0.864380,1.487885,-6.086121,-0.358887,1,2,1,1,4,55.000000
2024-11-25 13:52:29.612,0.370920152698547,1.285360139319065,1.318986706023605,1.079095443850007,0.3349156507412541,0.9054153501515679,0.5937615705687561,0.6855182689415538,0.1596016945529446,0.7463430236762877,0.2583165872796628,0.6218509456069745,0.1661438365999458,0.5543668082303163,-0.05623099002261897,0.2829326030633779,-0.04617332652464761,0.2357094188344046,-0.2079034931198668,-0.1652126827350212,798.6080586080586,820.3663003663004,790.952380952381,635.0183150183151,0,-0.429749,0.126404,0.718384,3.783264,1.031799,-3.932800,1,2,1,1,4,55.000000
2024-11-25 13:52:30.105,,,,,,,,,,,,,,,,,,,,,,,,,,,,,,,,,,,,,,/muse/elements/blink
2024-11-25 13:52:30.117,0.370920152698547,1.285360139319065,1.318986706023605,1.079095443850007,0.3349156507412541,0.9054153501515679,0.5937615705687561,0.6855182689415538,0.1596016945529446,0.7463430236762877,0.2583165872796628,0.6218509456069745,0.1661438365999458,0.5543668082303163,-0.05623099002261897,0.2829326030633779,-0.04617332652464761,0.2357094188344046,-0.2079034931198668,-0.1652126827350212,771.2087912087912,826.007326007326,865.8974358974359,447.6556776556777,0,-0.359680,0.032043,0.773926,-24.658508,3.454285,49.100189,1,2,4,1,4,55.000000
2024-11-25 13:52:30.506,,,,,,,,,,,,,,,,,,,,,,,,,,,,,,,,,,,,,,/muse/elements/blink
2024-11-25 13:52:30.610,0.370920152698547,1.285360139319065,1.318986706023605,1.079095443850007,0.3349156507412541,0.9054153501515679,0.5937615705687561,0.6855182689415538,0.1596016945529446,0.7463430236762877,0.2583165872796628,0.6218509456069745,0.1661438365999458,0.5543668082303163,-0.05623099002261897,0.2829326030633779,-0.04617332652464761,0.2357094188344046,-0.2079034931198668,-0.1652126827350212,738.5714285714286,813.1135531135532,775.6410256410256,699.8901098901099,1296.630036630037,-0.335388,0.110107,0.739136,5.383301,-0.643005,-7.574005,1,2,4,1,4,55.000000
2024-11-25 13:52:31.108,0.370920152698547,1.285360139319065,1.318986706023605,1.079095443850007,0.3349156507412541,0.9054153501515679,0.5937615705687561,0.6855182689415538,0.1596016945529446,0.7463430236762877,0.2583165872796628,0.6218509456069745,0.1661438365999458,0.5543668082303163,-0.05623099002261897,0.2829326030633779,-0.04617332652464761,0.2357094188344046,-0.2079034931198668,-0.1652126827350212,821.1721611721612,800.6227106227107,823.1868131868132,896.9230769230769,1626.227106227106,-0.434814,-0.001038,0.895874,7.252502,-4.112244,-10.684357,1,2,1,1,4,55.000000
2024-11-25 13:52:31.608,0.370920152698547,1.285360139319065,1.318986706023605,1.079095443850007,0.3349156507412541,0.9054153501515679,0.5937615705687561,0.6855182689415538,0.1596016945529446,0.7463430236762877,0.2583165872796628,0.6218509456069745,0.1661438365999458,0.5543668082303163,-0.05623099002261897,0.2829326030633779,-0.04617332652464761,0.2357094188344046,-0.2079034931198668,-0.1652126827350212,878.7912087912089,776.4468864468864,787.3260073260074,1293.406593406593,1626.630036630037,-0.436523,0.190674,0.979248,7.237549,-3.558960,-8.553467,1,2,1,1,4,55.000000
2024-11-25 13:52:31.810,,,,,,,,,,,,,,,,,,,,,,,,,,,,,,,,,,,,,,/muse/elements/blink
2024-11-25 13:52:32.031,,,,,,,,,,,,,,,,,,,,,,,,,,,,,,,,,,,,,,/muse/elements/blink
2024-11-25 13:52:32.109,0.370920152698547,1.285360139319065,1.318986706023605,1.079095443850007,0.3349156507412541,0.9054153501515679,0.5937615705687561,0.6855182689415538,0.1596016945529446,0.7463430236762877,0.2583165872796628,0.6218509456069745,0.1661438365999458,0.5543668082303163,-0.05623099002261897,0.2829326030633779,-0.04617332652464761,0.2357094188344046,-0.2079034931198668,-0.1652126827350212,971.0622710622711,826.007326007326,848.974358974359,1382.857142857143,1626.630036630037,-0.494995,0.033508,1.108093,6.407623,0.583191,-0.777588,1,2,1,1,4,55.000000
2024-11-25 13:52:32.320,,,,,,,,,,,,,,,,,,,,,,,,,,,,,,,,,,,,,,/muse/elements/blink
2024-11-25 13:52:32.609,0.370920152698547,1.285360139319065,1.318986706023605,1.079095443850007,0.3349156507412541,0.9054153501515679,0.5937615705687561,0.6855182689415538,0.1596016945529446,0.7463430236762877,0.2583165872796628,0.6218509456069745,0.1661438365999458,0.5543668082303163,-0.05623099002261897,0.2829326030633779,-0.04617332652464761,0.2357094188344046,-0.2079034931198668,-0.1652126827350212,921.9047619047619,796.996336996337,826.4102564102565,1033.113553113553,1043.589743589744,-0.532654,0.137451,1.119507,6.295471,-3.611298,-5.383301,1,2,1,1,4,55.000000
2024-11-25 13:52:32.943,,,,,,,,,,,,,,,,,,,,,,,,,,,,,,,,,,,,,,/muse/elements/blink
2024-11-25 13:52:33.109,0.370920152698547,1.285360139319065,1.318986706023605,1.079095443850007,0.3349156507412541,0.9054153501515679,0.5937615705687561,0.6855182689415538,0.1596016945529446,0.7463430236762877,0.2583165872796628,0.6218509456069745,0.1661438365999458,0.5543668082303163,-0.05623099002261897,0.2829326030633779,-0.04617332652464761,0.2357094188344046,-0.2079034931198668,-0.1652126827350212,855.0183150183151,786.5201465201466,797.8021978021978,905.3846153846154,1025.054945054945,-0.445984,0.112915,0.872314,-1.719666,-4.590759,6.018829,1,2,4,1,4,55.000000
2024-11-25 13:52:33.122,,,,,,,,,,,,,,,,,,,,,,,,,,,,,,,,,,,,,,/muse/elements/blink
2024-11-25 13:52:33.608,0.370920152698547,1.285360139319065,1.318986706023605,1.079095443850007,0.3349156507412541,0.9054153501515679,0.5937615705687561,0.6855182689415538,0.1596016945529446,0.7463430236762877,0.2583165872796628,0.6218509456069745,0.1661438365999458,0.5543668082303163,-0.05623099002261897,0.2829326030633779,-0.04617332652464761,0.2357094188344046,-0.2079034931198668,-0.1652126827350212,749.4505494505495,815.934065934066,796.5934065934066,822.3809523809524,892.893772893773,-0.581604,0.041565,1.095337,4.284210,2.534637,-4.717865,1,2,4,1,4,55.000000
2024-11-25 13:52:33.873,,,,,,,,,,,,,,,,,,,,,,,,,,,,,,,,,,,,,,/muse/elements/blink
2024-11-25 13:52:34.052,,,,,,,,,,,,,,,,,,,,,,,,,,,,,,,,,,,,,,/muse/elements/blink
2024-11-25 13:52:34.108,0.370920152698547,1.285360139319065,1.318986706023605,1.079095443850007,0.3349156507412541,0.9054153501515679,0.5937615705687561,0.6855182689415538,0.1596016945529446,0.7463430236762877,0.2583165872796628,0.6218509456069745,0.1661438365999458,0.5543668082303163,-0.05623099002261897,0.2829326030633779,-0.04617332652464761,0.2357094188344046,-0.2079034931198668,-0.1652126827350212,830.8424908424909,807.4725274725275,780.0732600732601,981.1355311355312,675.3113553113553,-0.404907,0.118958,0.796448,-0.112152,-0.433655,6.340332,1,2,1,1,4,55.000000
2024-11-25 13:52:34.491,,,,,,,,,,,,,,,,,,,,,,,,,,,,,,,,,,,,,,/muse/elements/blink
2024-11-25 13:52:34.609,0.370920152698547,1.285360139319065,1.318986706023605,1.079095443850007,0.3349156507412541,0.9054153501515679,0.5937615705687561,0.6855182689415538,0.1596016945529446,0.7463430236762877,0.2583165872796628,0.6218509456069745,0.1661438365999458,0.5543668082303163,-0.05623099002261897,0.2829326030633779,-0.04617332652464761,0.2357094188344046,-0.2079034931198668,-0.1652126827350212,680.952380952381,838.0952380952381,809.8901098901099,449.6703296703297,0,-0.377502,0.027283,0.726257,0.500946,0.829926,9.951630,1,2,1,1,4,55.000000
2024-11-25 13:52:34.667,,,,,,,,,,,,,,,,,,,,,,,,,,,,,,,,,,,,,,/muse/elements/blink
2024-11-25 13:52:35.090,,,,,,,,,,,,,,,,,,,,,,,,,,,,,,,,,,,,,,/muse/elements/blink
2024-11-25 13:52:35.109,0.370920152698547,1.285360139319065,1.318986706023605,1.079095443850007,0.3349156507412541,0.9054153501515679,0.5937615705687561,0.6855182689415538,0.1596016945529446,0.7463430236762877,0.2583165872796628,0.6218509456069745,0.1661438365999458,0.5543668082303163,-0.05623099002261897,0.2829326030633779,-0.04617332652464761,0.2357094188344046,-0.2079034931198668,-0.1652126827350212,774.8351648351648,805.0549450549451,782.0879120879121,598.7545787545788,10.87912087912088,-0.309937,0.114197,0.755981,4.568329,-6.452484,-11.402130,1,2,1,1,4,55.000000
2024-11-25 13:52:35.556,,,,,,,,,,,,,,,,,,,,,,,,,,,,,,,,,,,,,,/muse/elements/blink
2024-11-25 13:52:35.608,0.370920152698547,1.285360139319065,1.318986706023605,1.079095443850007,0.3349156507412541,0.9054153501515679,0.5937615705687561,0.6855182689415538,0.1596016945529446,0.7463430236762877,0.2583165872796628,0.6218509456069745,0.1661438365999458,0.5543668082303163,-0.05623099002261897,0.2829326030633779,-0.04617332652464761,0.2357094188344046,-0.2079034931198668,-0.1652126827350212,785.7142857142858,796.1904761904763,780.0732600732601,647.9120879120879,163.992673992674,-0.325500,-0.014038,0.765137,5.301056,-17.174225,0.792542,1,2,1,1,4,55.000000
2024-11-25 13:52:35.798,,,,,,,,,,,,,,,,,,,,,,,,,,,,,,,,,,,,,,/muse/elements/blink
2024-11-25 13:52:36.066,,,,,,,,,,,,,,,,,,,,,,,,,,,,,,,,,,,,,,/muse/elements/blink
2024-11-25 13:52:36.108,0.370920152698547,1.285360139319065,1.318986706023605,1.079095443850007,0.3349156507412541,0.9054153501515679,0.5937615705687561,0.6855182689415538,0.1596016945529446,0.7463430236762877,0.2583165872796628,0.6218509456069745,0.1661438365999458,0.5543668082303163,-0.05623099002261897,0.2829326030633779,-0.04617332652464761,0.2357094188344046,-0.2079034931198668,-0.1652126827350212,806.2637362637363,782.0879120879121,790.952380952381,904.981684981685,1626.630036630037,-0.392578,0.169250,0.987000,4.777679,-4.680481,-6.332855,1,2,1,1,4,55.000000
2024-11-25 13:52:36.311,,,,,,,,,,,,,,,,,,,,,,,,,,,,,,,,,,,,,,/muse/elements/blink
2024-11-25 13:52:36.608,0.370920152698547,1.285360139319065,1.318986706023605,1.079095443850007,0.3349156507412541,0.9054153501515679,0.5937615705687561,0.6855182689415538,0.1596016945529446,0.7463430236762877,0.2583165872796628,0.6218509456069745,0.1661438365999458,0.5543668082303163,-0.05623099002261897,0.2829326030633779,-0.04617332652464761,0.2357094188344046,-0.2079034931198668,-0.1652126827350212,911.0256410256411,818.7545787545788,804.2490842490843,1470.29304029304,1626.630036630037,-0.542358,0.011902,1.127808,-2.145844,-8.082428,4.478607,1,2,1,1,4,55.000000
2024-11-25 13:52:36.906,,,,,,,,,,,,,,,,,,,,,,,,,,,,,,,,,,,,,,/muse/elements/blink
2024-11-25 13:52:37.106,,,,,,,,,,,,,,,,,,,,,,,,,,,,,,,,,,,,,,/muse/elements/blink
2024-11-25 13:52:37.111,0.370920152698547,1.285360139319065,1.318986706023605,1.079095443850007,0.3349156507412541,0.9054153501515679,0.5937615705687561,0.6855182689415538,0.1596016945529446,0.7463430236762877,0.2583165872796628,0.6218509456069745,0.1661438365999458,0.5543668082303163,-0.05623099002261897,0.2829326030633779,-0.04617332652464761,0.2357094188344046,-0.2079034931198668,-0.1652126827350212,998.0586080586081,793.3699633699634,834.8717948717949,1546.849816849817,1612.527472527473,-0.340820,0.184998,1.065979,7.588959,-1.136475,2.063599,1,2,4,1,4,55.000000
2024-11-25 13:52:37.307,,,,,,,,,,,,,,,,,,,,,,,,,,,,,,,,,,,,,,/muse/elements/blink
2024-11-25 13:52:37.608,0.370920152698547,1.285360139319065,1.318986706023605,1.079095443850007,0.3349156507412541,0.9054153501515679,0.5937615705687561,0.6855182689415538,0.1596016945529446,0.7463430236762877,0.2583165872796628,0.6218509456069745,0.1661438365999458,0.5543668082303163,-0.05623099002261897,0.2829326030633779,-0.04617332652464761,0.2357094188344046,-0.2079034931198668,-0.1652126827350212,878.3882783882784,805.4578754578755,840.9157509157509,953.7362637362637,946.0805860805862,-0.456909,0.092651,0.947632,-1.487885,-2.295380,4.583282,1,2,1,1,4,55.000000
2024-11-25 13:52:37.818,,,,,,,,,,,,,,,,,,,,,,,,,,,,,,,,,,,,,,/muse/elements/blink
2024-11-25 13:52:38.108,0.370920152698547,1.285360139319065,1.318986706023605,1.079095443850007,0.3349156507412541,0.9054153501515679,0.5937615705687561,0.6855182689415538,0.1596016945529446,0.7463430236762877,0.2583165872796628,0.6218509456069745,0.1661438365999458,0.5543668082303163,-0.05623099002261897,0.2829326030633779,-0.04617332652464761,0.2357094188344046,-0.2079034931198668,-0.1652126827350212,869.5238095238095,798.2051282051282,770.8058608058608,907.8021978021978,523.4065934065934,-0.487427,0.008057,1.005798,4.979553,7.147827,-4.119720,1,2,1,1,4,55.000000
2024-11-25 13:52:38.608,0.370920152698547,1.285360139319065,1.318986706023605,1.079095443850007,0.3349156507412541,0.9054153501515679,0.5937615705687561,0.6855182689415538,0.1596016945529446,0.7463430236762877,0.2583165872796628,0.6218509456069745,0.1661438365999458,0.5543668082303163,-0.05623099002261897,0.2829326030633779,-0.04617332652464761,0.2357094188344046,-0.2079034931198668,-0.1652126827350212,826.8131868131868,786.5201465201466,798.2051282051282,957.3626373626374,356.996336996337,-0.460510,0.157776,0.947083,3.289795,1.413116,7.132874,1,2,1,1,4,55.000000
2024-11-25 13:52:39.035,,,,,,,,,,,,,,,,,,,,,,,,,,,,,,,,,,,,,,/muse/elements/blink
2024-11-25 13:52:39.108,0.370920152698547,1.285360139319065,1.318986706023605,1.079095443850007,0.3349156507412541,0.9054153501515679,0.5937615705687561,0.6855182689415538,0.1596016945529446,0.7463430236762877,0.2583165872796628,0.6218509456069745,0.1661438365999458,0.5543668082303163,-0.05623099002261897,0.2829326030633779,-0.04617332652464761,0.2357094188344046,-0.2079034931198668,-0.1652126827350212,785.3113553113553,836.0805860805862,705.1282051282052,678.1318681318681,0,-0.436340,-0.026123,0.882874,1.353302,-4.478607,8.388977,1,2,1,1,4,55.000000
2024-11-25 13:52:39.214,,,,,,,,,,,,,,,,,,,,,,,,,,,,,,,,,,,,,,/muse/elements/blink
2024-11-25 13:52:39.608,0.370920152698547,1.285360139319065,1.318986706023605,1.079095443850007,0.3349156507412541,0.9054153501515679,0.5937615705687561,0.6855182689415538,0.1596016945529446,0.7463430236762877,0.2583165872796628,0.6218509456069745,0.1661438365999458,0.5543668082303163,-0.05623099002261897,0.2829326030633779,-0.04617332652464761,0.2357094188344046,-0.2079034931198668,-0.1652126827350212,824.3956043956044,825.2014652014652,822.7838827838829,754.6886446886447,0,-0.400146,0.117249,0.797607,1.809387,1.420593,-6.130981,1,2,1,1,4,55.000000
2024-11-25 13:52:39.653,,,,,,,,,,,,,,,,,,,,,,,,,,,,,,,,,,,,,,/muse/elements/blink
2024-11-25 13:52:39.964,,,,,,,,,,,,,,,,,,,,,,,,,,,,,,,,,,,,,,/muse/elements/blink
2024-11-25 13:52:40.108,0.370920152698547,1.285360139319065,1.318986706023605,1.079095443850007,0.3349156507412541,0.9054153501515679,0.5937615705687561,0.6855182689415538,0.1596016945529446,0.7463430236762877,0.2583165872796628,0.6218509456069745,0.1661438365999458,0.5543668082303163,-0.05623099002261897,0.2829326030633779,-0.04617332652464761,0.2357094188344046,-0.2079034931198668,-0.1652126827350212,805.0549450549451,842.5274725274726,826.8131868131868,425.8974358974359,0,-0.349609,0.005737,0.721985,3.514099,2.444916,8.403931,1,2,1,1,4,55.000000
2024-11-25 13:52:40.341,,,,,,,,,,,,,,,,,,,,,,,,,,,,,,,,,,,,,,/muse/elements/blink
2024-11-25 13:52:40.613,0.370920152698547,1.285360139319065,1.318986706023605,1.079095443850007,0.3349156507412541,0.9054153501515679,0.5937615705687561,0.6855182689415538,0.1596016945529446,0.7463430236762877,0.2583165872796628,0.6218509456069745,0.1661438365999458,0.5543668082303163,-0.05623099002261897,0.2829326030633779,-0.04617332652464761,0.2357094188344046,-0.2079034931198668,-0.1652126827350212,793.3699633699634,842.5274725274726,768.7912087912088,618.901098901099,266.3369963369963,-0.264343,0.127991,0.718811,0.986938,3.932800,-12.508698,1,2,1,1,4,55.000000
2024-11-25 13:52:40.673,,,,,,,,,,,,,,,,,,,,,,,,,,,,,,,,,,,,,,/muse/elements/blink
2024-11-25 13:52:41.108,0.370920152698547,1.285360139319065,1.318986706023605,1.079095443850007,0.3349156507412541,0.9054153501515679,0.5937615705687561,0.6855182689415538,0.1596016945529446,0.7463430236762877,0.2583165872796628,0.6218509456069745,0.1661438365999458,0.5543668082303163,-0.05623099002261897,0.2829326030633779,-0.04617332652464761,0.2357094188344046,-0.2079034931198668,-0.1652126827350212,837.6923076923077,797.3992673992674,787.3260073260074,1146.336996336996,1626.630036630037,-0.387390,-0.007629,0.991516,-1.562653,-8.351593,0.306549,1,2,1,1,4,55.000000
2024-11-25 13:52:41.205,,,,,,,,,,,,,,,,,,,,,,,,,,,,,,,,,,,,,,/muse/elements/blink
2024-11-25 13:52:41.608,0.370920152698547,1.285360139319065,1.318986706023605,1.079095443850007,0.3349156507412541,0.9054153501515679,0.5937615705687561,0.6855182689415538,0.1596016945529446,0.7463430236762877,0.2583165872796628,0.6218509456069745,0.1661438365999458,0.5543668082303163,-0.05623099002261897,0.2829326030633779,-0.04617332652464761,0.2357094188344046,-0.2079034931198668,-0.1652126827350212,942.4542124542124,818.3516483516484,825.2014652014652,1192.673992673993,1587.948717948718,-0.288879,0.164429,0.903259,1.241150,-5.121613,1.121521,1,2,1,1,4,55.000000
2024-11-25 13:52:42.108,0.370920152698547,1.285360139319065,1.318986706023605,1.079095443850007,0.3349156507412541,0.9054153501515679,0.5937615705687561,0.6855182689415538,0.1596016945529446,0.7463430236762877,0.2583165872796628,0.6218509456069745,0.1661438365999458,0.5543668082303163,-0.05623099002261897,0.2829326030633779,-0.04617332652464761,0.2357094188344046,-0.2079034931198668,-0.1652126827350212,921.5018315018315,814.3223443223443,831.2454212454213,1627.838827838828,1626.630036630037,-0.295593,0.001526,1.057190,0.957031,-1.652374,4.127197,1,2,1,1,4,55.000000
2024-11-25 13:52:42.160,,,,,,,,,,,,,,,,,,,,,,,,,,,,,,,,,,,,,,/muse/elements/blink
2024-11-25 13:52:42.534,,,,,,,,,,,,,,,,,,,,,,,,,,,,,,,,,,,,,,/muse/elements/blink
2024-11-25 13:52:42.608,0.370920152698547,1.285360139319065,1.318986706023605,1.079095443850007,0.3349156507412541,0.9054153501515679,0.5937615705687561,0.6855182689415538,0.1596016945529446,0.7463430236762877,0.2583165872796628,0.6218509456069745,0.1661438365999458,0.5543668082303163,-0.05623099002261897,0.2829326030633779,-0.04617332652464761,0.2357094188344046,-0.2079034931198668,-0.1652126827350212,769.1941391941392,866.3003663003664,788.1318681318681,809.0842490842491,232.4908424908425,-0.253906,0.102661,0.992188,-2.048645,-8.269348,12.531128,1,2,1,1,4,55.000000
2024-11-25 13:52:42.780,,,,,,,,,,,,,,,,,,,,,,,,,,,,,,,,,,,,,,/muse/elements/blink
2024-11-25 13:52:43.108,0.370920152698547,1.285360139319065,1.318986706023605,1.079095443850007,0.3349156507412541,0.9054153501515679,0.5937615705687561,0.6855182689415538,0.1596016945529446,0.7463430236762877,0.2583165872796628,0.6218509456069745,0.1661438365999458,0.5543668082303163,-0.05623099002261897,0.2829326030633779,-0.04617332652464761,0.2357094188344046,-0.2079034931198668,-0.1652126827350212,767.1794871794872,785.7142857142858,786.1172161172161,620.1098901098901,358.2051282051282,-0.341980,0.112915,0.946960,2.676697,0.672913,3.858032,1,2,1,1,2,55.000000
2024-11-25 13:52:43.608,0.370920152698547,1.285360139319065,1.318986706023605,1.079095443850007,0.3349156507412541,0.9054153501515679,0.5937615705687561,0.6855182689415538,0.1596016945529446,0.7463430236762877,0.2583165872796628,0.6218509456069745,0.1661438365999458,0.5543668082303163,-0.05623099002261897,0.2829326030633779,-0.04617332652464761,0.2357094188344046,-0.2079034931198668,-0.1652126827350212,813.919413919414,812.7106227106227,812.3076923076924,794.981684981685,452.0879120879121,-0.300903,0.135620,0.966125,3.207550,-4.635620,2.325287,1,2,1,1,2,55.000000
2024-11-25 13:52:44.110,0.370920152698547,1.285360139319065,1.15774613475944,1.079095443850007,0.3349156507412541,0.9054153501515679,1.114896480929429,0.6855182689415538,0.1596016945529446,0.7463430236762877,1.299283907646755,0.6218509456069745,0.1661438365999458,0.5543668082303163,0.6746889130108776,0.2829326030633779,-0.04617332652464761,0.2357094188344046,0.1883999587039026,-0.1652126827350212,784.5054945054945,786.9230769230769,798.6080586080586,772.8205128205128,1068.168498168498,-0.328003,0.123779,0.956421,3.095398,-1.428070,-1.375732,1,2,1,1,2,55.000000
2024-11-25 13:52:44.608,1.18493009274184,0.2618917788187374,1.045530168925648,1.079095443850007,0.9861681709367941,0.2097542028036497,0.9679864087710078,0.6855182689415538,1.511126190321112,0.9651708444677926,1.299283907646755,0.6218509456069745,1.040369046395918,0.3208842054528682,0.6636517806669168,0.2829326030633779,0.8865248162757785,0.4355408477584786,0.2319471699918868,-0.1652126827350212,784.9084249084249,785.3113553113553,782.893772893773,708.3516483516484,498.021978021978,-0.351685,0.103577,0.957703,2.108459,0.471039,-0.246735,1,1,1,1,1,55.000000
2024-11-25 13:52:45.108,1.187085490878617,0.5899588649941584,1.058968282732474,1.079095443850007,1.002912970701886,0.5316438266936149,0.9155349797768015,0.6855182689415538,1.518588633200792,1.016602688652902,1.204100245102518,0.6218509456069745,1.01697385249262,0.2764989968002872,0.6782726061569787,0.2829326030633779,0.763379919455129,0.3156049611767275,0.2555449128529352,-0.1652126827350212,852.6007326007326,800.2197802197802,790.952380952381,743.8095238095239,461.3553113553114,-0.346619,0.110535,0.949890,3.357086,-0.755157,-2.228088,1,1,1,1,2,55.000000
2024-11-25 13:52:45.231,,,,,,,,,,,,,,,,,,,,,,,,,,,,,,,,,,,,,,/muse/elements/blink
2024-11-25 13:52:45.608,1.224383958086241,0.7969823539860316,0.9444592969962827,1.079095443850007,0.9502576685605238,0.7132679105046092,0.658209739755227,0.6855182689415538,1.501010222948452,1.016602688652902,0.9457453290005515,0.6218509456069745,0.9998834912126228,0.4550032930856627,0.689349176710049,0.2829326030633779,0.7409019548137887,0.4428602383764279,0.3058034148580692,-0.1652126827350212,788.1318681318681,797.8021978021978,774.4322344322345,744.2124542124542,982.3443223443223,-0.356201,0.097046,0.944092,3.087921,0.104675,-1.772003,1,1,1,1,1,55.000000
2024-11-25 13:52:46.108,1.190831887503689,0.9747904631907854,0.957042151212943,1.079095443850007,1.030747315798237,0.8865208769004715,0.653563164471395,0.6855182689415538,0.9485590079300825,0.6285948905291754,0.6057340220566378,0.6218509456069745,0.9727304283677045,0.5304687879068533,0.6663861929850452,0.2829326030633779,0.3930795123202421,0.4480138652521389,0.3600665281545403,-0.1652126827350212,828.4249084249085,806.2637362637363,813.919413919414,882.4175824175825,871.5384615384615,-0.357361,0.104858,0.954468,2.773895,-2.751465,-2.295380,1,1,1,1,1,55.000000
2024-11-25 13:52:46.608,1.190831887503689,1.019790298407875,0.957042151212943,1.079095443850007,1.030747315798237,0.9348953662854993,0.653563164471395,0.6855182689415538,0.9485590079300825,0.6220089017807503,0.6057340220566378,0.6218509456069745,0.9727304283677045,0.987239084013016,0.6663861929850452,0.2829326030633779,0.3930795123202421,0.8099005415369487,0.3600665281545403,-0.1652126827350212,835.6776556776557,789.7435897435897,809.8901098901099,925.1282051282052,1330.07326007326,-0.318542,0.100159,0.965027,2.639313,-1.487885,1.555176,1,1,1,1,1,55.000000
2024-11-25 13:52:47.108,1.129654251928253,0.4043536553834619,0.957042151212943,1.079095443850007,0.5255276036747547,0.3656898094027847,0.653563164471395,0.6855182689415538,0.827576441375887,0.6299561947038768,0.6057340220566378,0.6218509456069745,1.065452602665548,1.03158912243371,0.6663861929850452,0.2829326030633779,0.9570990939718217,0.6678097184206142,0.3600665281545403,-0.1652126827350212,790.5494505494506,815.5311355311355,794.1758241758242,728.901098901099,493.1868131868132,-0.367737,0.103516,0.942383,2.265472,-1.241150,1.031799,1,1,1,1,1,55.000000
2024-11-25 13:52:47.463,,,,,,,,,,,,,,,,,,,,,,,,,,,,,,,,,,,,,,/muse/elements/blink
2024-11-25 13:52:47.608,1.184082795032949,0.7433059205629335,0.957042151212943,1.079095443850007,0.5953263124271695,0.5052983269333147,0.653563164471395,0.6855182689415538,0.827576441375887,0.6573999580615603,0.6057340220566378,0.6218509456069745,1.045992956488889,0.8569899267817471,0.6663861929850452,0.2829326030633779,0.9122276057264886,0.5263102278922561,0.3600665281545403,-0.1652126827350212,778.4615384615385,796.996336996337,794.981684981685,760.3296703296703,631.3919413919414,-0.393921,0.091553,0.924988,2.572021,-0.643005,-2.953339,1,1,1,1,1,55.000000
2024-11-25 13:52:48.078,,,,,,,,,,,,,,,,,,,,,,,,,,,,,,,,,,,,,,/muse/elements/blink
2024-11-25 13:52:48.108,1.343977477035638,0.7909503104024631,0.957042151212943,1.079095443850007,0.7058678361221841,0.5090407454055573,0.653563164471395,0.6855182689415538,0.6372287356979995,0.5473025500642623,0.6057340220566378,0.6218509456069745,1.018663669965657,0.6800257236588162,0.6663861929850452,0.2829326030633779,0.7896002733485573,0.3136202040575224,0.3600665281545403,-0.1652126827350212,814.7252747252747,785.7142857142858,799.0109890109891,882.014652014652,755.8974358974359,-0.362793,0.093323,0.954651,1.891632,-0.164490,-0.553284,1,1,1,1,1,55.000000
2024-11-25 13:52:48.608,1.459662664236912,0.8733326114476389,0.957042151212943,1.079095443850007,0.7946819406969499,0.7090610819090822,0.653563164471395,0.6855182689415538,0.4450131568723875,0.4788756272944582,0.6057340220566378,0.6218509456069745,0.9720775866084316,0.5301248394120972,0.6663861929850452,0.2829326030633779,0.5234873466245129,0.1421628551076127,0.3600665281545403,-0.1652126827350212,804.2490842490843,797.8021978021978,794.1758241758242,721.2454212454213,669.2673992673992,-0.328918,0.093567,0.955444,3.708496,-0.366364,-0.665436,1,1,1,1,1,55.000000
2024-11-25 13:52:49.108,1.459662664236912,0.6733608935504199,0.957042151212943,1.079095443850007,0.7946819406969499,0.707018884299745,0.653563164471395,0.6855182689415538,0.4450131568723875,0.3967202578915685,0.6057340220566378,0.6218509456069745,0.9720775866084316,0.6210555429907809,0.6663861929850452,0.2829326030633779,0.5234873466245129,0.0262989796439697,0.3600665281545403,-0.1652126827350212,804.6520146520147,787.3260073260074,789.3406593406594,872.3443223443223,1214.029304029304,-0.342346,0.090088,0.958374,2.811279,0.396271,-0.927124,1,1,1,1,1,55.000000
2024-11-25 13:52:49.610,1.459662664236912,0.6046779831337936,0.2439468648228359,1.079095443850007,0.7946819406969499,0.5044856391200858,0.1995784812605833,0.6855182689415538,0.4450131568723875,0.4248847142118968,0.1580253501819439,0.6218509456069745,0.9720775866084316,0.513555866581187,0.1156960191736425,0.2829326030633779,0.5234873466245129,0.1170330467050194,-0.02704076607977625,-0.1652126827350212,835.2747252747253,824.7985347985348,792.5641025641025,689.8168498168499,437.5824175824176,-0.374329,0.102844,0.939880,2.295380,4.515991,-1.136475,1,1,1,1,1,55.000000
2024-11-25 13:52:50.108,1.459662664236912,0.5988419966264688,0.2741833188337588,1.079095443850007,0.7946819406969499,0.4749115457052777,0.1879576925783316,0.6855182689415538,0.4450131568723875,0.5086386569261833,0.1897301795482504,0.6218509456069745,0.9720775866084316,0.5264806102333047,0.1655035124176632,0.2829326030633779,0.5234873466245129,0.168499866758082,0.03674010291534256,-0.1652126827350212,811.0989010989011,789.7435897435897,782.893772893773,790.1465201465202,618.4981684981685,-0.394958,0.097229,0.933350,1.644897,-1.203766,0.889740,1,2,1,1,2,55.000000
2024-11-25 13:52:50.608,1.459662664236912,0.5228909170821325,0.6094679942144771,1.079095443850007,0.7946819406969499,0.07087603335600066,0.3380842459243323,0.6855182689415538,0.4450131568723875,0.3417896415652036,0.5333501074745802,0.6218509456069745,0.9720775866084316,0.4249093608484323,0.5843234300679282,0.2829326030633779,0.5234873466245129,0.2616891318623553,0.4506430198512154,-0.1652126827350212,834.4688644688645,776.0439560439561,772.4175824175825,738.974358974359,677.3260073260074,-0.413452,0.058228,0.932617,4.471130,0.067291,-0.912170,1,2,1,1,2,55.000000
2024-11-25 13:52:51.108,1.459662664236912,0.4639208788652029,0.8263313211395926,1.079095443850007,0.7946819406969499,-0.1634026385613894,0.4827210606267284,0.6855182689415538,0.4450131568723875,0.3417896415652036,0.5924640646826885,0.6218509456069745,0.9720775866084316,0.4920863783894619,0.9327590519319237,0.2829326030633779,0.5234873466245129,0.3021143080769541,0.7632322448148108,-0.1652126827350212,826.4102564102565,799.8168498168499,780.4761904761905,798.6080586080586,625.7509157509157,-0.387146,0.100952,0.928711,3.282318,-2.444916,-1.914062,1,2,1,1,2,55.000000
2024-11-25 13:52:51.406,,,,,,,,,,,,,,,,,,,,,,,,,,,,,,,,,,,,,,/muse/elements/jaw_clench
2024-11-25 13:52:51.612,1.459662664236912,0.4639208788652029,0.9724768285357391,1.079095443850007,0.7946819406969499,-0.1634026385613894,0.601424108582681,0.6855182689415538,0.4450131568723875,0.3417896415652036,0.5924640646826885,0.6218509456069745,0.9720775866084316,0.4920863783894619,1.119896152342778,0.2829326030633779,0.5234873466245129,0.3021143080769541,0.9411836951387336,-0.1652126827350212,838.901098901099,763.1501831501831,780.4761904761905,717.6190476190476,777.6556776556777,-0.380066,0.091614,0.955505,4.822540,-2.572021,-0.874786,1,2,1,1,2,55.000000
2024-11-25 13:52:51.648,,,,,,,,,,,,,,,,,,,,,,,,,,,,,,,,,,,,,,/muse/elements/blink
2024-11-25 13:52:51.648,,,,,,,,,,,,,,,,,,,,,,,,,,,,,,,,,,,,,,/muse/elements/jaw_clench
2024-11-25 13:52:51.914,,,,,,,,,,,,,,,,,,,,,,,,,,,,,,,,,,,,,,/muse/elements/blink
2024-11-25 13:52:52.108,1.459662664236912,0.4639208788652029,1.003358326594403,1.079095443850007,0.7946819406969499,-0.1634026385613894,0.628520102159103,0.6855182689415538,0.4450131568723875,0.3417896415652036,0.5764078509054351,0.6218509456069745,0.9720775866084316,0.4920863783894619,1.25155072847893,0.2829326030633779,0.5234873466245129,0.3021143080769541,1.040144633358959,-0.1652126827350212,809.0842490842491,794.1758241758242,786.5201465201466,813.5164835164835,716.8131868131868,-0.373169,0.103943,0.932983,2.086029,0.381317,-0.590668,1,2,1,1,2,55.000000
2024-11-25 13:52:52.529,,,,,,,,,,,,,,,,,,,,,,,,,,,,,,,,,,,,,,/muse/elements/blink
2024-11-25 13:52:52.608,1.459662664236912,0.4639208788652029,1.003358326594403,1.079095443850007,0.7946819406969499,-0.1634026385613894,0.628520102159103,0.6855182689415538,0.4450131568723875,0.3417896415652036,0.5764078509054351,0.6218509456069745,0.9720775866084316,0.4920863783894619,1.25155072847893,0.2829326030633779,0.5234873466245129,0.3021143080769541,1.040144633358959,-0.1652126827350212,667.2527472527473,829.2307692307693,784.1025641025641,691.4285714285714,810.2930402930403,-0.400208,0.094238,0.930237,2.272949,-1.876678,-1.323395,1,2,1,1,2,55.000000
2024-11-25 13:52:52.769,,,,,,,,,,,,,,,,,,,,,,,,,,,,,,,,,,,,,,/muse/elements/blink
2024-11-25 13:52:53.112,1.459662664236912,0.4639208788652029,1.003358326594403,1.079095443850007,0.7946819406969499,-0.1634026385613894,0.628520102159103,0.6855182689415538,0.4450131568723875,0.3417896415652036,0.5764078509054351,0.6218509456069745,0.9720775866084316,0.4920863783894619,1.25155072847893,0.2829326030633779,0.5234873466245129,0.3021143080769541,1.040144633358959,-0.1652126827350212,782.4908424908425,732.1245421245421,760.3296703296703,763.5531135531136,861.0622710622711,-0.371338,0.092712,0.941956,3.080444,-0.231781,-1.712189,1,2,1,1,2,55.000000
2024-11-25 13:52:53.609,1.459662664236912,0.4639208788652029,1.003358326594403,1.079095443850007,0.7946819406969499,-0.1634026385613894,0.628520102159103,0.6855182689415538,0.4450131568723875,0.3417896415652036,0.5764078509054351,0.6218509456069745,0.9720775866084316,0.4920863783894619,1.25155072847893,0.2829326030633779,0.5234873466245129,0.3021143080769541,1.040144633358959,-0.1652126827350212,770,786.1172161172161,798.6080586080586,762.7472527472528,751.0622710622711,-0.375793,0.091003,0.936279,4.149628,-1.585083,-1.547699,1,2,1,1,2,55.000000
2024-11-25 13:52:53.832,,,,,,,,,,,,,,,,,,,,,,,,,,,,,,,,,,,,,,/muse/elements/blink
2024-11-25 13:52:54.108,1.459662664236912,0.4639208788652029,1.003358326594403,1.079095443850007,0.7946819406969499,-0.1634026385613894,0.628520102159103,0.6855182689415538,0.4450131568723875,0.3417896415652036,0.5764078509054351,0.6218509456069745,0.9720775866084316,0.4920863783894619,1.25155072847893,0.2829326030633779,0.5234873466245129,0.3021143080769541,1.040144633358959,-0.1652126827350212,844.1391941391942,793.3699633699634,814.3223443223443,837.6923076923077,626.1538461538462,-0.369446,0.105347,0.947327,3.895416,-6.781464,-0.067291,1,2,1,1,2,55.000000
2024-11-25 13:52:54.608,1.459662664236912,0.4639208788652029,0.9031099908750209,1.079095443850007,0.7946819406969499,-0.1634026385613894,0.6793037744286987,0.6855182689415538,0.4450131568723875,0.3417896415652036,0.7574122097865875,0.6218509456069745,0.9720775866084316,0.4920863783894619,0.6524957004978813,0.2829326030633779,0.5234873466245129,0.3021143080769541,0.4694769617670054,-0.1652126827350212,806.2637362637363,792.5641025641025,791.3553113553114,802.6373626373627,673.6996336996338,-0.352356,0.086914,0.952209,2.729034,-3.745880,-3.454285,1,2,1,1,2,55.000000
2024-11-25 13:52:55.062,,,,,,,,,,,,,,,,,,,,,,,,,,,,,,,,,,,,,,/muse/elements/blink
2024-11-25 13:52:55.112,1.459662664236912,0.8166845229755877,1.032286456620688,1.079095443850007,0.7946819406969499,0.5496070780600796,0.664412895571394,0.6855182689415538,0.4450131568723875,0.5406803277100903,0.8604835554699179,0.6218509456069745,0.9720775866084316,0.3829030082746758,0.4949128221171543,0.2829326030633779,0.5234873466245129,0.3041134078156676,0.2931241558904971,-0.1652126827350212,771.2087912087912,787.7289377289378,787.3260073260074,766.3736263736264,778.8644688644689,-0.313049,0.092102,0.965454,1.936493,-3.155212,2.108459,1,2,1,1,2,55.000000
2024-11-25 13:52:55.608,1.459662664236912,0.9336467553730533,1.247495099500309,1.079095443850007,0.7946819406969499,0.6067869271921409,0.9094458243531087,0.6855182689415538,0.4450131568723875,0.6523471382534398,0.8208004003539655,0.6218509456069745,0.9720775866084316,0.3439600812847616,0.3878478642159023,0.2829326030633779,0.5234873466245129,0.09494683485872003,0.1101448102790629,-0.1652126827350212,792.967032967033,799.8168498168499,790.952380952381,789.7435897435897,748.2417582417582,-0.205261,0.076172,0.986511,-0.127106,-15.686340,2.355194,1,2,1,1,2,55.000000
2024-11-25 13:52:56.073,,,,,,,,,,,,,,,,,,,,,,,,,,,,,,,,,,,,,,/muse/elements/blink
2024-11-25 13:52:56.108,1.459662664236912,0.8683105072228157,1.263421204799953,1.079095443850007,0.7946819406969499,0.6466118956313919,0.9468388819439401,0.6855182689415538,0.4450131568723875,0.6546418790192201,0.8041843889094403,0.6218509456069745,0.9720775866084316,0.224164912763453,0.11319851493197,0.2829326030633779,0.5234873466245129,-0.02031089416327397,-0.1953149858505402,-0.1652126827350212,832.0512820512821,799.8168498168499,783.2967032967033,814.3223443223443,752.6739926739926,0.088806,0.066589,1.014954,-1.951447,-32.397003,4.785156,1,2,1,1,2,55.000000
2024-11-25 13:52:56.608,1.459662664236912,0.9181030929635078,1.206738822191353,1.079095443850007,0.7946819406969499,0.7280143322250769,1.017213996295723,0.6855182689415538,0.4450131568723875,0.6423734632764677,0.8834656943923073,0.6218509456069745,0.9720775866084316,0.09681719004068384,0.04574073896419661,0.2829326030633779,0.5234873466245129,-0.3803913005508749,-0.3987684259005467,-0.1652126827350212,797.8021978021978,773.6263736263736,805.0549450549451,819.1575091575091,618.0952380952381,0.131348,0.046631,0.998047,2.220612,-2.302856,1.181335,1,2,1,1,2,55.000000
2024-11-25 13:52:57.108,1.459662664236912,0.8286135570449363,1.000155422292996,1.079095443850007,0.7946819406969499,0.7570539651510308,0.9951777351962534,0.6855182689415538,0.4450131568723875,0.5709666053903941,0.8276014014714045,0.6218509456069745,0.9720775866084316,0.03334116962011361,0.06670878014793026,0.2829326030633779,0.5234873466245129,-0.3882838189822367,-0.5994187681297739,-0.1652126827350212,799.4139194139194,801.4285714285714,796.1904761904763,800.2197802197802,571.7582417582418,0.151550,0.042908,0.999390,1.988831,-2.377625,-1.338348,1,2,1,1,2,55.000000
2024-11-25 13:52:57.525,,,,,,,,,,,,,,,,,,,,,,,,,,,,,,,,,,,,,,/muse/elements/blink
2024-11-25 13:52:57.608,1.459662664236912,0.7757998621644089,0.9869151103510828,1.079095443850007,0.7946819406969499,0.684592358821273,0.9383820984126348,0.6855182689415538,0.4450131568723875,0.5588489391413028,0.8276014014714045,0.6218509456069745,0.9720775866084316,0.04795812982275639,0.06535667853544812,0.2829326030633779,0.5234873466245129,-0.4073260438616103,-0.6644384126683318,-0.1652126827350212,813.1135531135532,791.3553113553114,791.3553113553114,835.6776556776557,762.3443223443223,0.132446,0.049622,1.001953,2.661743,-2.115936,1.300964,1,2,1,1,2,55.000000
