TimeStamp,Delta_TP9,Delta_AF7,Delta_AF8,Delta_TP10,Theta_TP9,Theta_AF7,Theta_AF8,Theta_TP10,Alpha_TP9,Alpha_AF7,Alpha_AF8,Alpha_TP10,Beta_TP9,Beta_AF7,Beta_AF8,Beta_TP10,Gamma_TP9,Gamma_AF7,Gamma_AF8,Gamma_TP10,RAW_TP9,RAW_AF7,RAW_AF8,RAW_TP10,AUX_RIGHT,Accelerometer_X,Accelerometer_Y,Accelerometer_Z,Gyro_X,Gyro_Y,Gyro_Z,HeadBandOn,HSI_TP9,HSI_AF7,HSI_AF8,HSI_TP10,Battery,Elements
2024-11-24 12:49:24.042,,,,,,,,,,,,,,,,,,,,,,,,,,,,,,,,,,,,,,/muse/event/connected Muse-D2D3
2024-11-24 12:49:24.131,,,,,,,,,,,,,,,,,,,,,,,,,,,,,,,,,,,,,,/muse/elements/blink
2024-11-24 12:49:24.549,1.061234293820147,-0.05889373291842258,0.7931888700281551,1.746203982444583,0.8908372272727376,-0.1714029003586092,0.445765795119631,1.729477696230379,1.24694270323581,0.0154015264148576,0.3534652636032941,1.683302466552764,0.699050070059142,-0.03474122957050108,0.3990669291886007,1.047036594449892,0.2102557299406006,-0.2909683993859217,-0.1541235445669964,1.123831900373542,731.3186813186813,797.8021978021978,817.5457875457876,824.3956043956044,808.2783882783883,-0.246704,0.140320,0.981140,0.493469,1.936493,1.704712,1,1,1,1,1,65.000000
2024-11-24 12:49:24.778,,,,,,,,,,,,,,,,,,,,,,,,,,,,,,,,,,,,,,/muse/elements/blink
2024-11-24 12:49:25.050,1.210831019409901,-0.1043293473010224,0.7595213770832461,1.742175938210649,1.168884726601495,-0.1332735892167049,0.4721691110621051,1.617040612608027,1.589643005798413,0.02368574593589979,0.3889389429129739,1.503971278467165,0.7546532774688565,-0.02891394166599769,0.4488128589978836,1.043652012254099,0.1143380543613903,-0.2870164241540436,-0.09214336076818055,0.970353454447661,839.7069597069598,799.8168498168499,808.2783882783883,775.6410256410256,662.8205128205128,-0.283508,0.114258,0.964050,1.689758,-3.693542,-1.323395,1,1,1,1,1,65.000000
2024-11-24 12:49:25.543,1.466562788021111,-0.113705753534946,0.456639012349347,1.742175938210649,1.541324042334814,-0.1188464753788835,0.2895131841641806,1.617040612608027,1.686069036276273,0.1545712143618812,0.3895739448022801,1.503971278467165,0.8516845308005504,-0.007284737588460698,0.3345356255469218,1.043652012254099,0.1762873833897485,-0.2658379814047106,-0.0310651505639425,0.970353454447661,901.7582417582418,765.1648351648352,782.4908424908425,813.919413919414,904.981684981685,-0.294617,0.125549,0.970032,3.147736,-3.132782,-0.067291,1,1,1,1,1,65.000000
2024-11-24 12:49:25.643,,,,,,,,,,,,,,,,,,,,,,,,,,,,,,,,,,,,,,/muse/elements/blink
2024-11-24 12:49:26.044,1.563079827941468,-0.0541858597876385,0.7278147704373102,1.742175938210649,1.754638475263655,-0.1462059373778255,0.4384464008774859,1.617040612608027,1.674853597895277,0.02831050184013869,0.5721331621069167,1.503971278467165,0.804162803259329,0.0267650441184908,0.2557009482255782,1.043652012254099,0.2638812146228068,-0.2437581843277581,0.04713079755692116,0.970353454447661,782.0879120879121,807.4725274725275,792.5641025641025,764.7619047619048,762.3443223443223,-0.291565,0.119202,0.965759,3.050537,-3.229980,0.022430,1,1,1,1,1,65.000000
2024-11-24 12:49:26.549,1.563079827941468,0.1311179894513165,0.9365842338540246,1.742175938210649,1.754638475263655,-0.1141023343089012,0.5111947241311603,1.617040612608027,1.674853597895277,0.02389672147069044,0.6881130258060154,1.503971278467165,0.804162803259329,0.06282997986615377,0.1972000743951119,1.043652012254099,0.2638812146228068,-0.2196252354966833,0.09121692268264465,0.970353454447661,800.6227106227107,804.6520146520147,804.2490842490843,799.0109890109891,669.6703296703297,-0.285767,0.131775,0.970947,3.050537,-2.332764,-1.054230,1,1,1,1,1,65.000000
2024-11-24 12:49:27.043,1.563079827941468,0.6045283255975891,1.066142465959987,1.742175938210649,1.754638475263655,0.5060711837421027,0.6225136093543499,1.617040612608027,1.674853597895277,0.4205029876417101,0.7384425238105479,1.503971278467165,0.804162803259329,-0.01261865342191678,0.1920809453775223,1.043652012254099,0.2638812146228068,-0.6205721562146937,0.006541801320635737,0.970353454447661,801.025641025641,809.0842490842491,799.8168498168499,911.4285714285714,1042.380952380953,-0.287170,0.120972,0.967346,2.145844,-3.461761,1.607513,1,1,1,1,1,65.000000
2024-11-24 12:49:27.546,1.407958699014797,0.4679579733211112,1.020082998704017,1.742175938210649,0.9593122272705843,0.3685451899547276,0.5060412539454567,1.617040612608027,0.7061257378552542,0.4419968643376372,0.7475756720788808,1.503971278467165,0.8082756097492646,0.01252720353367924,0.2585892917556373,1.043652012254099,0.5984432346589496,-0.5769191441261826,-0.09661469987868755,0.970353454447661,779.2673992673992,803.040293040293,793.3699633699634,770.4029304029305,1024.249084249084,-0.284790,0.123779,0.960449,2.990723,-3.798218,0.717773,1,1,1,1,1,65.000000
2024-11-24 12:49:28.043,1.298881182728845,0.3487149512827533,0.6783967043823541,1.742175938210649,0.8368837824745189,0.1917178911424352,0.2543079604841162,1.617040612608027,1.025732918131639,0.4419968643376372,0.7428294482683634,1.503971278467165,0.7980093851587389,-0.0316207217219153,0.2492937665089548,1.043652012254099,0.5005715667632874,-0.5075495651458046,-0.06053510154724014,0.970353454447661,783.6996336996338,801.8315018315019,795.3846153846154,650.3296703296703,664.8351648351648,-0.249451,0.134949,0.973022,2.908478,-0.448608,-1.854248,1,1,1,1,1,65.000000
2024-11-24 12:49:28.551,1.258074874914893,0.07354404303198864,0.5372173913600176,1.742175938210649,0.9655634594310248,-0.1462169390637008,0.05237706459403924,1.617040612608027,1.262709813266117,0.2355303618550918,0.5078979073686889,1.503971278467165,0.7716862189257563,-0.05852255863180124,0.2385107070092737,1.043652012254099,0.4803154698430805,-0.3892051853876048,0.002631595603604759,0.970353454447661,805.4578754578755,805.4578754578755,792.967032967033,832.4542124542124,707.5457875457876,-0.279297,0.138367,0.975647,1.682281,-2.758942,0.269165,1,1,1,1,1,65.000000
2024-11-24 12:49:29.043,1.176833158031181,-0.04144791697992983,0.3432614684341835,1.742175938210649,0.916076770219395,-0.2276102319275036,-0.0004830252273054395,1.617040612608027,1.306382359724238,0.2150831263701727,0.4893539996551931,1.503971278467165,0.7535975156586583,-0.1042354963336373,0.2243172238914993,1.043652012254099,0.5332956898834003,-0.3688694176974489,0.1290333099973135,0.970353454447661,791.3553113553114,797.3992673992674,796.5934065934066,717.2161172161173,863.4798534798535,-0.241028,0.149048,0.966553,3.753357,-10.123596,3.200073,1,1,1,1,1,65.000000
2024-11-24 12:49:29.543,1.086382120267838,-0.1375079165111167,0.3680703938155319,1.742175938210649,0.8581891208833663,-0.1903970652944338,-0.01808977800877806,1.617040612608027,1.307557930639776,0.207189932917196,0.4265020435085616,1.503971278467165,0.7585425020140614,-0.09470826278722057,0.1750685821864181,1.043652012254099,0.5714036117070265,-0.3512164145174742,0.1407507977942767,0.970353454447661,820.3663003663004,800.6227106227107,803.040293040293,1162.051282051282,1066.153846153846,-0.155579,0.145447,0.973572,0.605621,-3.147736,4.201965,1,1,1,1,1,65.000000
2024-11-24 12:49:29.989,,,,,,,,,,,,,,,,,,,,,,,,,,,,,,,,,,,,,,/muse/elements/blink
2024-11-24 12:49:30.047,1.030277962013452,-0.08504398757037841,0.3030327585435373,1.742175938210649,0.686193580252486,-0.056169688317722,0.08666367422345686,1.617040612608027,1.279533768329089,0.427575476317304,0.3446975017742599,1.503971278467165,0.8212517948497423,-0.04646012121399021,0.1374993677968927,1.043652012254099,0.6245978415247997,-0.4570013464760992,0.07960982351976741,0.970353454447661,755.8974358974359,819.96336996337,772.014652014652,1020.21978021978,123.2967032967033,-0.133179,0.135925,1.083191,1.345825,15.589142,-7.484283,1,1,1,1,1,65.000000
2024-11-24 12:49:30.177,,,,,,,,,,,,,,,,,,,,,,,,,,,,,,,,,,,,,,/muse/elements/blink
2024-11-24 12:49:30.543,0.7691558680994858,0.8611430143352451,0.7632211587384228,1.742175938210649,0.2540846683248973,0.5909416104949708,0.5047535248946324,1.617040612608027,1.022374979262675,0.7506616782136294,0.4368436132965092,1.503971278467165,0.8713955417851774,0.02797703278850279,0.1715642077740015,1.043652012254099,0.5113039206169634,-0.4679895940033715,-0.130489646928818,0.970353454447661,734.9450549450549,795.7875457875458,799.4139194139194,908.2051282051282,693.040293040293,-0.199585,0.193298,0.963013,2.811279,-3.588867,5.188904,1,1,1,1,4,65.000000
2024-11-24 12:49:30.786,,,,,,,,,,,,,,,,,,,,,,,,,,,,,,,,,,,,,,/muse/elements/blink
2024-11-24 12:49:30.973,,,,,,,,,,,,,,,,,,,,,,,,,,,,,,,,,,,,,,/muse/elements/blink
2024-11-24 12:49:31.043,0.740217016679527,1.069602610987008,0.9884032957171808,1.742175938210649,0.2779204316463247,0.7524164265136131,0.6173593513539115,1.617040612608027,0.8249854329632623,0.7531789488335121,0.4368436132965092,1.503971278467165,0.921782175328966,0.1246317335250936,0.2386467215889442,1.043652012254099,0.4203624783010247,-0.4744937940473493,-0.2312224619520894,0.970353454447661,886.8498168498169,798.6080586080586,803.040293040293,1119.340659340659,1626.630036630037,-0.223999,0.070068,0.985901,3.274841,-10.833893,5.749664,1,1,1,1,4,65.000000
2024-11-24 12:49:31.391,,,,,,,,,,,,,,,,,,,,,,,,,,,,,,,,,,,,,,/muse/elements/blink
2024-11-24 12:49:31.543,0.740217016679527,1.109921756761916,1.043644523964041,1.742175938210649,0.2779204316463247,0.7783228898723038,0.5512762882146658,1.617040612608027,0.8249854329632623,0.7531789488335121,0.4198715965648646,1.503971278467165,0.921782175328966,0.1721536951684991,0.2750261403455771,1.043652012254099,0.4203624783010247,-0.3374560024282837,-0.1922862775593623,0.970353454447661,1070.989010989011,808.6813186813187,805.0549450549451,1226.117216117216,1585.934065934066,-0.105896,0.167236,0.948181,-1.876678,-6.482391,-13.196564,1,1,1,1,4,65.000000
2024-11-24 12:49:31.923,,,,,,,,,,,,,,,,,,,,,,,,,,,,,,,,,,,,,,/muse/elements/blink
2024-11-24 12:49:32.051,0.740217016679527,0.8540049632445519,0.8654810490895068,1.742175938210649,0.2779204316463247,0.5362214843823526,0.2280254993653142,1.617040612608027,0.8249854329632623,0.4099211237097019,0.3548014401472814,1.503971278467165,0.921782175328966,0.1715210503019494,0.1786967069660987,1.043652012254099,0.4203624783010247,-0.3515082820503301,-0.1299713002421849,0.970353454447661,680.1465201465202,819.5604395604396,793.3699633699634,367.0695970695971,35.05494505494506,-0.287170,0.176636,1.313782,2.198181,-0.104675,9.046936,1,1,1,1,4,65.000000
2024-11-24 12:49:32.179,,,,,,,,,,,,,,,,,,,,,,,,,,,,,,,,,,,,,,/muse/elements/blink
2024-11-24 12:49:32.525,,,,,,,,,,,,,,,,,,,,,,,,,,,,,,,,,,,,,,/muse/elements/blink
2024-11-24 12:49:32.542,0.740217016679527,0.516154186374889,0.6721867407220112,1.742175938210649,0.2779204316463247,0.4276982776579658,0.2947437185269668,1.617040612608027,0.8249854329632623,0.5899165868457907,0.5316523264331816,1.503971278467165,0.921782175328966,0.1422539059420899,0.1240608999242781,1.043652012254099,0.4203624783010247,-0.3742637355790733,-0.0550765296034262,0.970353454447661,856.2271062271062,796.1904761904763,799.8168498168499,549.5970695970697,699.8901098901099,-0.127625,0.062744,0.975098,3.835602,-11.417084,-4.231873,1,2,1,1,4,65.000000
2024-11-24 12:49:33.055,0.740217016679527,0.3732614761381189,0.6385610502586624,1.742175938210649,0.2779204316463247,0.3400442194775384,0.3853186031581347,1.617040612608027,0.8249854329632623,0.5999061667591542,0.5399521258857443,1.503971278467165,0.921782175328966,0.1620673720196052,0.0785322927008435,1.043652012254099,0.4203624783010247,-0.5181821872415304,-0.03514181419060188,0.970353454447661,551.6117216117216,797.3992673992674,802.6373626373627,413.4065934065934,14.1025641025641,-0.119080,0.197876,0.847961,3.439331,-12.568512,-2.586975,1,2,1,1,4,65.000000
2024-11-24 12:49:33.134,,,,,,,,,,,,,,,,,,,,,,,,,,,,,,,,,,,,,,/muse/elements/blink
2024-11-24 12:49:33.543,0.740217016679527,0.2149145579212653,0.633674417286059,1.742175938210649,0.2779204316463247,0.3253925653560586,0.3641223697594099,1.617040612608027,0.8249854329632623,0.5999061667591542,0.5399521258857443,1.503971278467165,0.921782175328966,0.1365339793133304,0.1027736092765005,1.043652012254099,0.4203624783010247,-0.5038652265944518,-0.04865646594801725,0.970353454447661,745.0183150183151,807.4725274725275,782.893772893773,1194.285714285714,1562.564102564103,-0.062500,0.062378,0.894104,3.416901,4.717865,-4.822540,1,2,1,1,4,65.000000
2024-11-24 12:49:33.735,,,,,,,,,,,,,,,,,,,,,,,,,,,,,,,,,,,,,,/muse/elements/blink
2024-11-24 12:49:34.043,0.740217016679527,0.5889901970478637,0.8809138725277783,1.742175938210649,0.2779204316463247,0.2547366578648531,0.384423476772948,1.617040612608027,0.8249854329632623,0.4486323021398749,0.4609289305522347,1.503971278467165,0.921782175328966,0.125087755035171,0.0795330793037973,1.043652012254099,0.4203624783010247,-0.4274704918610853,-0.1170767175882186,0.970353454447661,1079.047619047619,809.8901098901099,796.1904761904763,1392.930402930403,1625.018315018315,-0.100525,0.225464,0.952637,-1.547699,-14.946136,2.706604,1,2,1,1,4,65.000000
2024-11-24 12:49:34.151,,,,,,,,,,,,,,,,,,,,,,,,,,,,,,,,,,,,,,/muse/elements/blink
2024-11-24 12:49:34.546,0.740217016679527,0.680150698154933,0.9372644039126978,1.742175938210649,0.2779204316463247,0.3390245526732914,0.4038033781513762,1.617040612608027,0.8249854329632623,0.341157281082059,0.4222487591339408,1.503971278467165,0.921782175328966,0.03709293697512483,0.06961715051537715,1.043652012254099,0.4203624783010247,-0.3628628900684101,-0.1422790277211388,0.970353454447661,803.040293040293,812.7106227106227,804.2490842490843,698.6813186813187,233.2967032967033,-0.204346,0.119934,1.274902,-2.198181,-1.457977,0.157013,1,2,1,1,4,65.000000
2024-11-24 12:49:34.775,,,,,,,,,,,,,,,,,,,,,,,,,,,,,,,,,,,,,,/muse/elements/blink
2024-11-24 12:49:34.962,,,,,,,,,,,,,,,,,,,,,,,,,,,,,,,,,,,,,,/muse/elements/blink
2024-11-24 12:49:35.043,0.740217016679527,0.8813609758211662,0.9493166143504475,1.742175938210649,0.2779204316463247,0.4099396832437336,0.474845829508851,1.617040612608027,0.8249854329632623,0.2501250353111003,0.457066355078575,1.503971278467165,0.921782175328966,0.09800771503088986,0.2271885605356665,1.043652012254099,0.4203624783010247,-0.2927991987466954,-0.06262077522555153,0.970353454447661,836.4835164835165,805.0549450549451,799.4139194139194,333.6263736263737,950.1098901098901,-0.204834,0.113037,1.103577,2.878571,-3.289795,-5.772095,1,2,1,1,4,65.000000
2024-11-24 12:49:35.543,0.740217016679527,0.7285517842005468,0.6033370942673472,1.742175938210649,0.2779204316463247,-0.05305893668324838,0.3437305519305635,1.617040612608027,0.8249854329632623,0.2625972379150002,0.3981339992504274,1.503971278467165,0.921782175328966,0.02395912660805744,0.3568922834211816,1.043652012254099,0.4203624783010247,-0.3984687234579367,-0.001813037512568441,0.970353454447661,747.8388278388279,800.2197802197802,811.0989010989011,701.9047619047619,27.3992673992674,-0.111450,0.194031,0.849792,1.966400,-9.353485,-1.143951,1,4,1,1,4,65.000000
2024-11-24 12:49:35.684,,,,,,,,,,,,,,,,,,,,,,,,,,,,,,,,,,,,,,/muse/elements/blink
2024-11-24 12:49:35.988,,,,,,,,,,,,,,,,,,,,,,,,,,,,,,,,,,,,,,/muse/elements/blink
2024-11-24 12:49:36.050,0.740217016679527,0.5121220418163853,0.4687122887337121,1.742175938210649,0.2779204316463247,0.164917272650608,0.1762724432876216,1.617040612608027,0.8249854329632623,0.1176346412757751,0.3860205787940875,1.503971278467165,0.921782175328966,0.04250410597483194,0.2931947244080489,1.043652012254099,0.4203624783010247,-0.507719819919363,-0.08016518460738332,0.970353454447661,736.959706959707,794.5787545787546,803.040293040293,799.4139194139194,1120.549450549451,-0.130493,0.090393,0.787903,7.843170,-4.284210,5.951538,1,4,1,1,4,65.000000
2024-11-24 12:49:36.543,0.740217016679527,0.4760925332697071,0.4751954678536208,1.742175938210649,0.2779204316463247,0.02868146841769182,0.1816707229232788,1.617040612608027,0.8249854329632623,0.1299172373860086,0.3549879829320107,1.503971278467165,0.921782175328966,0.03149162049384362,0.2426898413398319,1.043652012254099,0.4203624783010247,-0.4377442786000807,-0.08397775392596818,0.970353454447661,827.6190476190476,787.3260073260074,803.4432234432235,1119.340659340659,1528.717948717949,-0.119751,0.195923,0.892090,-0.613098,2.086029,-8.074951,1,4,1,1,4,65.000000
2024-11-24 12:49:36.618,,,,,,,,,,,,,,,,,,,,,,,,,,,,,,,,,,,,,,/muse/elements/blink
2024-11-24 12:49:36.879,,,,,,,,,,,,,,,,,,,,,,,,,,,,,,,,,,,,,,/muse/elements/blink
2024-11-24 12:49:37.043,0.740217016679527,0.6128975549421505,0.6912433363614192,1.742175938210649,0.2779204316463247,0.285973549697394,0.3078417851208564,1.617040612608027,0.8249854329632623,0.1579738509028167,0.4528383067655977,1.503971278467165,0.921782175328966,0.07087649359691461,0.1718148293321131,1.043652012254099,0.4203624783010247,-0.3701878114538316,-0.1440862306949013,0.970353454447661,1076.227106227106,805.4578754578755,790.952380952381,1258.754578754579,1626.630036630037,-0.203674,0.032715,1.118835,-1.981354,1.547699,-1.525269,1,4,1,1,4,65.000000
2024-11-24 12:49:37.484,,,,,,,,,,,,,,,,,,,,,,,,,,,,,,,,,,,,,,/muse/elements/blink
2024-11-24 12:49:37.543,0.740217016679527,0.8174579727658027,0.720501273301714,1.742175938210649,0.2779204316463247,0.3521076381004672,0.3876110615233816,1.617040612608027,0.8249854329632623,0.0965997550002187,0.4528383067655977,1.503971278467165,0.921782175328966,0.1048806857448479,0.2306929385329534,1.043652012254099,0.4203624783010247,-0.2885147142430354,-0.07166911665256194,0.970353454447661,968.6446886446887,790.5494505494506,805.0549450549451,949.7069597069598,875.9706959706959,-0.104126,0.223450,1.148865,3.207550,-2.833710,-11.835785,1,4,1,1,4,65.000000
2024-11-24 12:49:37.672,,,,,,,,,,,,,,,,,,,,,,,,,,,,,,,,,,,,,,/muse/elements/blink
2024-11-24 12:49:37.903,,,,,,,,,,,,,,,,,,,,,,,,,,,,,,,,,,,,,,/muse/elements/blink
2024-11-24 12:49:38.051,0.740217016679527,0.998257579915576,0.6809955854246398,1.742175938210649,0.2779204316463247,0.5085901763598745,0.3013077583267759,1.617040612608027,0.8249854329632623,0.07318243868063763,0.5275009135712295,1.503971278467165,0.921782175328966,0.1204406349185787,0.3607980678582703,1.043652012254099,0.4203624783010247,-0.2692377004994455,-0.2612211000582659,0.970353454447661,687.8021978021978,796.5934065934066,799.4139194139194,774.0293040293041,677.7289377289377,-0.213379,0.208435,1.162476,9.458160,8.433838,12.089996,1,4,1,1,4,65.000000
2024-11-24 12:49:38.543,0.740217016679527,0.9431454479267557,0.3909211807397786,1.742175938210649,0.2779204316463247,0.4281736462949802,-0.04946508836744808,1.617040612608027,0.8249854329632623,0.1707583821099171,0.3529307099411091,1.503971278467165,0.921782175328966,0.04455605554203328,0.2867748653673943,1.043652012254099,0.4203624783010247,-0.3601555791377776,-0.2276489168159137,0.970353454447661,877.1794871794872,796.1904761904763,806.2637362637363,411.3919413919414,1232.161172161172,-0.273682,0.058838,1.022156,11.312408,-12.822723,-5.166473,1,4,1,1,4,65.000000
2024-11-24 12:49:38.613,,,,,,,,,,,,,,,,,,,,,,,,,,,,,,,,,,,,,,/muse/elements/blink
2024-11-24 12:49:38.800,,,,,,,,,,,,,,,,,,,,,,,,,,,,,,,,,,,,,,/muse/elements/blink
2024-11-24 12:49:39.049,0.740217016679527,0.7449762704268525,0.4218198329708823,1.742175938210649,0.2779204316463247,0.2404214648402416,0.03223593450792501,1.617040612608027,0.8249854329632623,-0.005436668804378052,0.4187619812305596,1.503971278467165,0.921782175328966,-0.08383468822696409,0.240291712414554,1.043652012254099,0.4203624783010247,-0.4220039814399478,-0.16417697508435,0.970353454447661,888.4615384615385,811.9047619047619,800.2197802197802,730.9157509157509,739.3772893772893,-0.172302,0.177307,0.867493,0.246735,-5.248718,2.893524,1,4,1,1,4,65.000000
2024-11-24 12:49:39.409,,,,,,,,,,,,,,,,,,,,,,,,,,,,,,,,,,,,,,/muse/elements/blink
2024-11-24 12:49:39.543,0.740217016679527,0.4450933216434019,0.5916020688437947,1.742175938210649,0.2779204316463247,0.06344605017150728,0.2574089512049083,1.617040612608027,0.8249854329632623,0.3283928178467233,0.3352489255309539,1.503971278467165,0.921782175328966,-0.04222815484743073,0.1927057498916452,1.043652012254099,0.4203624783010247,-0.4382327457251265,-0.1285188445795577,0.970353454447661,669.6703296703297,796.996336996337,799.8168498168499,759.5238095238095,558.4615384615385,-0.194092,0.094849,0.793213,6.669312,4.717865,6.803894,1,4,1,1,4,65.000000
2024-11-24 12:49:39.737,,,,,,,,,,,,,,,,,,,,,,,,,,,,,,,,,,,,,,/muse/elements/blink
2024-11-24 12:49:40.043,0.740217016679527,0.6058115304366113,0.7739539458434458,1.742175938210649,0.2779204316463247,0.08642527941877215,0.4855016134868811,1.617040612608027,0.8249854329632623,0.3116891571598094,0.417414899322511,1.503971278467165,0.921782175328966,0.05975368533657794,0.2728201830286295,1.043652012254099,0.4203624783010247,-0.3743560132508035,-0.06356099885549764,0.970353454447661,741.3919413919414,793.7728937728938,794.5787545787546,1027.472527472527,1330.07326007326,-0.122192,0.163025,0.889587,-7.080536,-12.157288,-0.112152,1,4,1,1,4,65.000000
2024-11-24 12:49:40.255,,,,,,,,,,,,,,,,,,,,,,,,,,,,,,,,,,,,,,/muse/elements/blink
2024-11-24 12:49:40.543,0.740217016679527,0.6115431584676825,0.7247885319567772,1.742175938210649,0.2779204316463247,0.08646731578484863,0.4503635750194209,1.617040612608027,0.8249854329632623,0.3082140786867888,0.4407890924872483,1.503971278467165,0.921782175328966,0.05490639641164281,0.3925600264670734,1.043652012254099,0.4203624783010247,-0.3882904619433331,-0.02771435226015738,0.970353454447661,965.4212454212454,803.4432234432235,788.5347985347986,810.6959706959707,1626.630036630037,-0.260742,0.037537,1.087891,-4.844971,2.886047,2.355194,1,4,1,1,4,65.000000
2024-11-24 12:49:40.629,,,,,,,,,,,,,,,,,,,,,,,,,,,,,,,,,,,,,,/muse/elements/blink
2024-11-24 12:49:41.043,0.740217016679527,0.5526162806480743,0.7439442975970473,1.742175938210649,0.2779204316463247,0.1174971336087518,0.5336739320346436,1.617040612608027,0.8249854329632623,0.3509852578288498,0.7126077984137488,1.503971278467165,0.921782175328966,0.03445537221002412,0.474249595122987,1.043652012254099,0.4203624783010247,-0.4289074961318818,0.0885732022680721,0.970353454447661,1043.186813186813,800.2197802197802,794.981684981685,884.4322344322345,560.4761904761905,-0.275330,0.233582,1.349609,-1.218719,-24.082794,-5.069275,1,4,1,1,4,65.000000
2024-11-24 12:49:41.143,,,,,,,,,,,,,,,,,,,,,,,,,,,,,,,,,,,,,,/muse/elements/blink
2024-11-24 12:49:41.554,0.740217016679527,0.5258284684676402,0.7970354287027129,1.742175938210649,0.2779204316463247,0.1861772433232505,0.6895559440882482,1.617040612608027,0.8249854329632623,0.3705347725088873,0.850825224917731,1.503971278467165,0.921782175328966,-0.03183263613775811,0.5164721833526262,1.043652012254099,0.4203624783010247,-0.4135965879034399,0.1354717946091733,0.970353454447661,543.1501831501831,799.8168498168499,806.2637362637363,87.03296703296704,7.655677655677656,-0.174377,0.144043,1.251953,7.416992,2.100983,8.650665,1,4,1,1,4,65.000000
2024-11-24 12:49:41.754,,,,,,,,,,,,,,,,,,,,,,,,,,,,,,,,,,,,,,/muse/elements/blink
2024-11-24 12:49:41.944,,,,,,,,,,,,,,,,,,,,,,,,,,,,,,,,,,,,,,/muse/elements/blink
2024-11-24 12:49:42.047,0.740217016679527,0.9841508311142445,0.9940579188530037,1.742175938210649,0.2779204316463247,0.4197664872974951,0.894834547387802,1.617040612608027,0.8249854329632623,0.5749834791413005,0.838593889578754,1.503971278467165,0.921782175328966,0.1445400658179474,0.5226196628242326,1.043652012254099,0.4203624783010247,-0.3009698634661105,0.1856360605056012,0.970353454447661,718.4249084249085,800.2197802197802,813.5164835164835,355.3846153846154,1305.897435897436,-0.218994,0.104980,1.258728,0.321503,-0.515900,-2.945862,1,4,1,1,4,65.000000
2024-11-24 12:49:42.543,0.740217016679527,1.085570924190509,1.183039504834131,1.742175938210649,0.2779204316463247,0.4462870676347945,1.095745235472749,1.617040612608027,0.8249854329632623,0.5749834791413005,0.838593889578754,1.503971278467165,0.921782175328966,0.1131550048813232,0.5865056691501743,1.043652012254099,0.4203624783010247,-0.2922661882657805,0.2186507483385948,0.970353454447661,738.1684981684982,808.2783882783883,788.9377289377289,912.6373626373627,0,-0.124939,0.147766,0.769165,2.998199,-4.643097,-2.669220,1,4,1,1,4,65.000000
2024-11-24 12:49:42.878,,,,,,,,,,,,,,,,,,,,,,,,,,,,,,,,,,,,,,/muse/elements/blink
2024-11-24 12:49:43.043,0.740217016679527,1.016841810516939,0.9343212571502522,1.742175938210649,0.2779204316463247,0.346596009209547,0.4468937965201183,1.617040612608027,0.8249854329632623,0.5688383943013271,0.7630125129199876,1.503971278467165,0.921782175328966,0.1056153498338138,0.09957146669406985,1.043652012254099,0.4203624783010247,-0.3876569054428681,-0.131852839939695,0.970353454447661,377.948717948718,806.2637362637363,798.6080586080586,992.014652014652,0,-0.209167,0.025574,0.802795,-1.241150,-0.500946,-9.218903,1,4,1,1,4,65.000000
2024-11-24 12:49:43.296,,,,,,,,,,,,,,,,,,,,,,,,,,,,,,,,,,,,,,/muse/elements/blink
2024-11-24 12:49:43.543,0.740217016679527,0.7403462049866909,0.8277879742957966,1.742175938210649,0.2779204316463247,0.184923746531032,0.3919062679766711,1.617040612608027,0.8249854329632623,0.2136008111941437,0.7768050980375848,1.503971278467165,0.921782175328966,0.1258046310945301,0.1552916561060997,1.043652012254099,0.4203624783010247,-0.4279952058015616,-0.08874069185632535,0.970353454447661,614.4688644688645,786.5201465201466,812.3076923076924,914.2490842490843,854.2124542124542,-0.155762,0.088013,0.762634,-5.158997,-8.994598,-4.082336,1,4,1,1,4,65.000000
2024-11-24 12:49:43.672,,,,,,,,,,,,,,,,,,,,,,,,,,,,,,,,,,,,,,/muse/elements/blink
2024-11-24 12:49:44.051,0.740217016679527,0.562876601019246,0.7852146999649999,1.742175938210649,0.2779204316463247,0.1247297959594279,0.3814267659376553,1.617040612608027,0.8249854329632623,0.3083708374228314,0.7768050980375848,1.503971278467165,0.921782175328966,0.2657816906438971,0.1599834953805364,1.043652012254099,0.4203624783010247,-0.3057221185765438,-0.09733919872380836,0.970353454447661,655.5677655677656,797.3992673992674,800.2197802197802,1094.761904761905,1608.901098901099,-0.147095,0.049194,0.882263,3.401947,-2.228088,4.777679,1,4,1,1,4,65.000000
2024-11-24 12:49:44.395,,,,,,,,,,,,,,,,,,,,,,,,,,,,,,,,,,,,,,/muse/elements/blink
2024-11-24 12:49:44.546,0.740217016679527,0.4060691241638552,0.8594281014597671,1.742175938210649,0.2779204316463247,0.06363151872593407,0.3354916785001704,1.617040612608027,0.8249854329632623,0.3099999660938353,0.6666749184726046,1.503971278467165,0.921782175328966,0.2594928604680455,0.2179604414069422,1.043652012254099,0.4203624783010247,-0.2727716574202319,-0.1180400615486732,0.970353454447661,1484.798534798535,800.2197802197802,808.6813186813187,1417.106227106227,1626.630036630037,-0.116455,0.232727,1.028931,6.243134,-6.998291,-10.504913,1,4,1,1,4,65.000000
2024-11-24 12:49:44.604,,,,,,,,,,,,,,,,,,,,,,,,,,,,,,,,,,,,,,/muse/elements/blink
2024-11-24 12:49:45.048,0.740217016679527,0.2002781013629463,0.8542133313879963,1.742175938210649,0.2779204316463247,-0.05987537272258399,0.3028979099442259,1.617040612608027,0.8249854329632623,0.2432719627360609,0.4544740428878876,1.503971278467165,0.921782175328966,0.1721887199003153,0.1985863540044212,1.043652012254099,0.4203624783010247,-0.2544624734608605,-0.1597839740409064,0.970353454447661,551.2087912087912,799.0109890109891,804.6520146520147,841.7216117216118,0,-0.159851,0.114624,1.255188,5.338440,1.203766,5.712280,1,4,1,1,4,65.000000
2024-11-24 12:49:45.400,,,,,,,,,,,,,,,,,,,,,,,,,,,,,,,,,,,,,,/muse/elements/blink
2024-11-24 12:49:45.543,0.740217016679527,0.3822098205301658,0.921495381171014,1.742175938210649,0.2779204316463247,0.2205003624173059,0.4222205630972511,1.617040612608027,0.8249854329632623,0.3437369545867895,0.5819784841315921,1.503971278467165,0.921782175328966,-0.002919804218754902,0.1988555514802083,1.043652012254099,0.4203624783010247,-0.359818598931988,-0.1879499098605915,0.970353454447661,638.6446886446887,790.952380952381,805.4578754578755,1091.538461538462,0,-0.234619,0.109619,1.125244,1.659851,-1.143951,-4.867401,1,4,1,1,4,65.000000
2024-11-24 12:49:45.835,,,,,,,,,,,,,,,,,,,,,,,,,,,,,,,,,,,,,,/muse/elements/blink
2024-11-24 12:49:46.043,0.740217016679527,0.7768815449784663,0.8408975917284154,1.742175938210649,0.2779204316463247,0.5017281714167261,0.4413940782718471,1.617040612608027,0.8249854329632623,0.4639731469191878,0.5819784841315921,1.503971278467165,0.921782175328966,0.07077781412316909,0.155059938109439,1.043652012254099,0.4203624783010247,-0.3183763324166003,-0.1872535514361415,0.970353454447661,1151.978021978022,799.0109890109891,805.0549450549451,618.901098901099,880.8058608058608,-0.166443,0.195801,0.994324,-1.241150,-4.127197,2.699127,1,4,1,1,4,65.000000
2024-11-24 12:49:46.349,,,,,,,,,,,,,,,,,,,,,,,,,,,,,,,,,,,,,,/muse/elements/blink
2024-11-24 12:49:46.539,,,,,,,,,,,,,,,,,,,,,,,,,,,,,,,,,,,,,,/muse/elements/blink
2024-11-24 12:49:46.545,0.740217016679527,0.8130584936956012,0.7805625199012124,1.742175938210649,0.2779204316463247,0.5599907129344066,0.4244387194386095,1.617040612608027,0.8249854329632623,0.4675370345056836,0.6448771791929759,1.503971278467165,0.921782175328966,0.09754597783679872,-0.1651664020066659,1.043652012254099,0.4203624783010247,-0.3239308168056459,-0.3562290727490582,0.970353454447661,1250.29304029304,809.4871794871796,808.2783882783883,390.8424908424909,977.1062271062272,-0.238159,0.038818,1.013550,5.345917,-4.306641,-1.532745,1,4,1,1,4,65.000000
2024-11-24 12:49:47.043,0.740217016679527,0.779315374429205,0.4580116540417013,1.742175938210649,0.2779204316463247,0.4697531539686211,-0.07062433144281101,1.617040612608027,0.8249854329632623,0.4571057274665105,0.5191220243644736,1.503971278467165,0.921782175328966,0.09111374808867886,0.1014470120712518,1.043652012254099,0.4203624783010247,-0.2912645682699644,-0.3714813950428715,0.970353454447661,211.9413919413919,824.7985347985348,770,417.4358974358975,0,-0.150940,0.173401,0.802917,3.708496,-4.112244,2.347717,1,4,1,1,4,65.000000
2024-11-24 12:49:47.558,0.740217016679527,0.5302593475229328,0.8769460806995205,1.742175938210649,0.2779204316463247,0.2424435598446698,0.2937985384680257,1.617040612608027,0.8249854329632623,0.3268142174756969,0.7912976677086075,1.503971278467165,0.921782175328966,0.05579909185720439,0.3868720666144001,1.043652012254099,0.4203624783010247,0.02514573461068232,-0.2017784627032637,0.970353454447661,540.3296703296703,801.025641025641,802.2344322344322,700.2930402930403,433.5531135531136,-0.191895,0.050842,0.773865,4.912262,1.203766,1.383209,1,4,1,1,4,60.000000
2024-11-24 12:49:47.662,,,,,,,,,,,,,,,,,,,,,,,,,,,,,,,,,,,,,,/muse/elements/blink
2024-11-24 12:49:47.943,,,,,,,,,,,,,,,,,,,,,,,,,,,,,,,,,,,,,,/muse/elements/blink
2024-11-24 12:49:48.050,0.740217016679527,0.5540239400979839,1.041232802128739,1.742175938210649,0.2779204316463247,0.3174807226401875,0.4397800896816702,1.617040612608027,0.8249854329632623,0.3881578403754024,0.8198496760485704,1.503971278467165,0.921782175328966,0.02869242019664249,0.449532028821219,1.043652012254099,0.4203624783010247,0.03875326516384765,-0.1891673274304688,0.970353454447661,607.2161172161173,789.3406593406594,808.2783882783883,1367.545787545788,1506.556776556777,-0.162048,0.106506,0.767395,-6.101074,4.344025,-1.069183,1,4,1,1,4,60.000000
2024-11-24 12:49:48.382,,,,,,,,,,,,,,,,,,,,,,,,,,,,,,,,,,,,,,/muse/elements/blink
2024-11-24 12:49:48.543,0.740217016679527,0.6911096881111424,1.15138406018268,1.742175938210649,0.2779204316463247,0.4720943860337053,0.5588883873584021,1.617040612608027,0.8249854329632623,0.5588641722775025,0.8198496760485704,1.503971278467165,0.921782175328966,0.05797446577105066,0.4994100632230372,1.043652012254099,0.4203624783010247,0.03757511640823145,-0.1378645721649513,0.970353454447661,1146.336996336996,785.7142857142858,778.4615384615385,1550.07326007326,1626.630036630037,-0.135254,0.057007,1.158325,-0.381317,4.261780,8.187103,1,4,1,1,4,60.000000
2024-11-24 12:49:48.877,,,,,,,,,,,,,,,,,,,,,,,,,,,,,,,,,,,,,,/muse/elements/blink
2024-11-24 12:49:49.044,0.740217016679527,0.8814918519222572,1.118735553438793,1.742175938210649,0.2779204316463247,0.5825064657614915,0.5385158561976684,1.617040612608027,0.8249854329632623,0.5799536603022502,0.7934690268330782,1.503971278467165,0.921782175328966,0.03435821633337372,0.23329280718933,1.043652012254099,0.4203624783010247,-0.2668488859406227,-0.3506281918176533,0.970353454447661,1500.915750915751,805.8608058608058,805.4578754578755,1623.406593406593,1626.630036630037,-0.027649,0.228455,1.106873,1.001892,-10.213318,-8.119812,1,4,1,1,4,60.000000
2024-11-24 12:49:49.388,,,,,,,,,,,,,,,,,,,,,,,,,,,,,,,,,,,,,,/muse/elements/blink
2024-11-24 12:49:49.543,0.740217016679527,1.016905783691466,1.118735553438793,1.742175938210649,0.2779204316463247,0.6736912337016439,0.5385158561976684,1.617040612608027,0.8249854329632623,0.5562341868902715,0.7934690268330782,1.503971278467165,0.921782175328966,0.06369549481049339,0.23329280718933,1.043652012254099,0.4203624783010247,-0.2869063959268134,-0.3506281918176533,0.970353454447661,900.952380952381,799.0109890109891,800.6227106227107,880.8058608058608,32.23443223443223,-0.202759,0.163391,1.276001,8.261871,2.205658,9.809570,1,4,1,1,4,60.000000
2024-11-24 12:49:50.043,0.740217016679527,0.9583340532155001,1.114463618475193,1.742175938210649,0.2779204316463247,0.5143269797832748,0.4146106860609126,1.617040612608027,0.8249854329632623,0.5153790836837845,0.5484887849462431,1.503971278467165,0.921782175328966,0.08434048355040208,0.16700422725272,1.043652012254099,0.4203624783010247,-0.311357917782821,-0.3494681767370496,0.970353454447661,660,804.2490842490843,792.5641025641025,677.3260073260074,564.5054945054945,-0.151672,0.113586,1.199463,0.829926,-3.424377,-5.420685,1,4,1,1,4,60.000000
2024-11-24 12:49:50.283,,,,,,,,,,,,,,,,,,,,,,,,,,,,,,,,,,,,,,/muse/elements/blink
2024-11-24 12:49:50.470,,,,,,,,,,,,,,,,,,,,,,,,,,,,,,,,,,,,,,/muse/elements/blink
2024-11-24 12:49:50.545,0.740217016679527,0.5293071624955468,0.8273608318272934,1.742175938210649,0.2779204316463247,0.01635804692404424,0.2744903756783261,1.617040612608027,0.8249854329632623,0.2922552444177017,0.5511733723893266,1.503971278467165,0.921782175328966,0.01450470485872481,0.03936421370869428,1.043652012254099,0.4203624783010247,-0.4870378046315856,-0.1890856654354905,0.970353454447661,1085.897435897436,800.2197802197802,812.7106227106227,880,1126.996336996337,-0.164795,0.239563,1.024048,1.585083,-11.835785,7.102966,1,4,1,1,4,60.000000
2024-11-24 12:49:51.043,0.740217016679527,0.54838257355937,0.7596589664217577,1.742175938210649,0.2779204316463247,0.1337932551117415,0.2279461623764401,1.617040612608027,0.8249854329632623,0.388931955350695,0.5513677665354695,1.503971278467165,0.921782175328966,-0.009830591583426569,0.0641284376535443,1.043652012254099,0.4203624783010247,-0.549556645914655,-0.1808548346664397,0.970353454447661,258.6813186813187,801.4285714285714,801.8315018315019,497.6190476190476,0,-0.203735,0.077881,0.833008,8.172150,9.891815,3.050537,1,4,1,1,4,60.000000
2024-11-24 12:49:51.544,0.740217016679527,0.4506793499108972,0.6185526080039988,1.742175938210649,0.2779204316463247,0.1763412906645585,0.03126170675208774,1.617040612608027,0.8249854329632623,0.2751851734600247,0.3353179253111139,1.503971278467165,0.921782175328966,0.03870708902693311,0.05829697095562094,1.043652012254099,0.4203624783010247,-0.6015511623827172,-0.1387270402935264,0.970353454447661,190.5860805860806,800.2197802197802,813.5164835164835,697.8754578754579,0,-0.127563,0.145813,0.815430,-2.355194,-10.071259,-4.837494,1,4,1,1,4,60.000000
2024-11-24 12:49:52.047,0.740217016679527,0.4630888659929104,0.7184235845315853,1.742175938210649,0.2779204316463247,0.3627713288741201,0.2371897967798116,1.617040612608027,0.8249854329632623,0.4121403050290456,0.1849931708168364,1.503971278467165,0.921782175328966,-0.004533024913824734,0.1024495736433548,1.043652012254099,0.4203624783010247,-0.5475703680268923,-0.2185345082181937,0.970353454447661,599.1575091575091,785.3113553113553,788.5347985347986,999.6703296703297,1626.630036630037,-0.154785,0.066589,0.898926,2.048645,-0.897217,1.203766,1,4,1,1,4,60.000000
2024-11-24 12:49:52.220,,,,,,,,,,,,,,,,,,,,,,,,,,,,,,,,,,,,,,/muse/elements/blink
2024-11-24 12:49:52.543,0.740217016679527,0.9601437910867389,0.9115665821824382,1.742175938210649,0.2779204316463247,0.750462190379977,0.4038718971595615,1.617040612608027,0.8249854329632623,0.4082943522732956,0.3418641972525676,1.503971278467165,0.921782175328966,0.01267983839820631,0.181309464888512,1.043652012254099,0.4203624783010247,-0.4525099960593252,-0.227623186020034,0.970353454447661,1095.567765567765,807.8754578754579,805.0549450549451,1008.937728937729,1626.630036630037,-0.116882,0.286804,1.102600,5.809479,-6.190796,2.542114,1,4,1,1,4,60.000000
2024-11-24 12:49:53.043,0.740217016679527,1.06996227249385,0.929874862984579,1.742175938210649,0.2779204316463247,0.8238502361679124,0.4668787038379697,1.617040612608027,0.8249854329632623,0.4020264501706369,0.4151167355733479,1.503971278467165,0.921782175328966,-0.04776220501908232,0.1896292332740887,1.043652012254099,0.4203624783010247,-0.4269708415993835,-0.282169725425524,0.970353454447661,1306.703296703297,802.2344322344322,808.6813186813187,1182.600732600733,1645.164835164835,-0.147644,0.064209,1.179749,3.611298,2.145844,3.536530,1,4,1,1,4,60.000000
2024-11-24 12:49:53.155,,,,,,,,,,,,,,,,,,,,,,,,,,,,,,,,,,,,,,/muse/elements/blink
2024-11-24 12:49:53.543,0.740217016679527,1.048042189723342,0.9077970769288647,1.742175938210649,0.2779204316463247,0.7465555776328042,0.4929947244822305,1.617040612608027,0.8249854329632623,0.1566856330547753,0.4200438756111088,1.503971278467165,0.921782175328966,-0.03492599700660506,0.159015941263173,1.043652012254099,0.4203624783010247,-0.2441104267265621,-0.2637100145615755,0.970353454447661,922.7106227106227,798.6080586080586,791.3553113553114,569.7435897435897,0,-0.133484,0.225647,1.223999,1.555176,-9.278717,-0.194397,1,4,1,1,4,60.000000
2024-11-24 12:49:54.050,0.740217016679527,0.3321871609391938,0.6827437987709988,1.742175938210649,0.2779204316463247,-0.1110629107128648,0.456498774463628,1.617040612608027,0.8249854329632623,-0.0476303096106936,0.3993016730734897,1.503971278467165,0.921782175328966,-0.0843229602544608,0.02022567408627009,1.043652012254099,0.4203624783010247,-0.2605087841483857,-0.2886170471876536,0.970353454447661,613.2600732600732,794.981684981685,793.7728937728938,766.7765567765568,483.1135531135531,-0.197449,0.195068,1.140808,0.358887,-2.826233,8.344116,1,4,1,1,4,60.000000
2024-11-24 12:49:54.280,,,,,,,,,,,,,,,,,,,,,,,,,,,,,,,,,,,,,,/muse/elements/blink
2024-11-24 12:49:54.552,0.740217016679527,0.2028295451553217,0.6021402558802387,1.742175938210649,0.2779204316463247,-0.08006077334705432,0.4421132178085461,1.617040612608027,0.8249854329632623,0.1298468802295185,0.2950325503656444,1.503971278467165,0.921782175328966,-0.09056609295405577,0.03149060146431096,1.043652012254099,0.4203624783010247,-0.2780207673043015,-0.1986600405549497,0.970353454447661,1205.567765567765,806.6666666666667,794.1758241758242,188.1684981684982,1301.465201465202,-0.227356,0.153564,1.341431,5.861816,-2.557068,-1.278534,1,4,1,1,4,60.000000
2024-11-24 12:49:55.043,0.740217016679527,0.3508388905119918,0.7492304172936649,1.742175938210649,0.2779204316463247,0.1830600211745651,0.4886806406873342,1.617040612608027,0.8249854329632623,0.3000954060721299,0.4645391443182929,1.503971278467165,0.921782175328966,-0.05988925039234718,0.1820400290030036,1.043652012254099,0.4203624783010247,-0.3497772014744629,-0.1712096166858175,0.970353454447661,553.2234432234433,811.0989010989011,810.2930402930403,466.996336996337,0,-0.105896,0.187317,0.975708,0.336456,-6.990814,0.635529,1,4,1,1,4,60.000000
2024-11-24 12:49:55.150,,,,,,,,,,,,,,,,,,,,,,,,,,,,,,,,,,,,,,/muse/elements/blink
2024-11-24 12:49:55.543,0.740217016679527,0.5765827346756174,0.7493851283454924,1.742175938210649,0.2779204316463247,0.3385526542377749,0.417300914797103,1.617040612608027,0.8249854329632623,0.3000954060721299,0.4550981302372873,1.503971278467165,0.921782175328966,-0.01447495257896633,0.261551345746238,1.043652012254099,0.4203624783010247,-0.3176680255306646,-0.1462657782630499,0.970353454447661,846.1538461538462,812.7106227106227,813.1135531135532,449.6703296703297,0,-0.150818,0.028198,0.791443,7.304840,2.444916,3.476715,1,4,1,1,4,60.000000
2024-11-24 12:49:55.592,,,,,,,,,,,,,,,,,,,,,,,,,,,,,,,,,,,,,,/muse/elements/blink
2024-11-24 12:49:55.851,,,,,,,,,,,,,,,,,,,,,,,,,,,,,,,,,,,,,,/muse/elements/blink
2024-11-24 12:49:56.042,0.740217016679527,0.6724096742338536,0.7028726834965553,1.742175938210649,0.2779204316463247,0.3007963483738089,0.3784534217814317,1.617040612608027,0.8249854329632623,0.3121888882386634,0.4610425349311185,1.503971278467165,0.921782175328966,-0.006177882907841387,0.2504590003909485,1.043652012254099,0.4203624783010247,-0.3399344119906721,-0.2151188092841262,0.970353454447661,404.5421245421246,794.981684981685,807.4725274725275,768.7912087912088,0.4029304029304029,-0.097290,0.160767,0.766113,2.078552,1.914062,-6.130981,1,4,1,1,4,60.000000
2024-11-24 12:49:56.547,0.740217016679527,0.6744631414022818,0.6259406979424601,1.742175938210649,0.2779204316463247,0.1444707485412955,0.2404942130236788,1.617040612608027,0.8249854329632623,0.2547009492220755,0.3079455770970027,1.503971278467165,0.921782175328966,0.07160612902764393,0.1358376652694996,1.043652012254099,0.4203624783010247,-0.3533158513269893,-0.288463206820132,0.970353454447661,565.7142857142858,792.5641025641025,820.7692307692308,1173.333333333333,1537.582417582418,-0.123840,0.049438,0.770630,2.960815,2.691650,-1.906586,1,4,1,1,4,60.000000
2024-11-24 12:49:57.044,0.740217016679527,0.6720671647812786,0.7024291845595345,1.742175938210649,0.2779204316463247,0.06696980834710428,0.312415993374168,1.617040612608027,0.8249854329632623,0.2650912962568996,0.3671952841922435,1.503971278467165,0.921782175328966,0.09675555660869305,0.05508839998003295,1.043652012254099,0.4203624783010247,-0.3794168398788735,-0.3970354016401785,0.970353454447661,788.1318681318681,802.6373626373627,793.7728937728938,898.9377289377289,1626.630036630037,-0.107422,0.207397,0.852661,-0.373840,-3.312225,2.153320,1,4,1,1,4,60.000000
2024-11-24 12:49:57.543,0.740217016679527,0.6864063191886915,0.799699401110746,1.742175938210649,0.2779204316463247,0.1311974183791972,0.4160922071445773,1.617040612608027,0.8249854329632623,0.328336834547573,0.3671952841922435,1.503971278467165,0.921782175328966,0.1486632518370664,0.03284354795522511,1.043652012254099,0.4203624783010247,-0.4198542819442057,-0.4123423558835189,0.970353454447661,1626.630036630037,807.0695970695971,813.1135531135532,1608.901098901099,1626.630036630037,-0.079529,0.015747,1.085632,0.613098,-6.572113,9.600220,1,4,1,1,4,60.000000
2024-11-24 12:49:57.596,,,,,,,,,,,,,,,,,,,,,,,,,,,,,,,,,,,,,,/muse/elements/blink
2024-11-24 12:49:58.048,0.740217016679527,0.5897205154797316,0.8448647216736523,1.742175938210649,0.2779204316463247,0.07393735348472259,0.4903337101354072,1.617040612608027,0.8249854329632623,0.315846797186765,0.3671952841922435,1.503971278467165,0.921782175328966,0.09781621073928659,0.008821214114572444,1.043652012254099,0.4203624783010247,-0.4369313975298959,-0.3894924477196508,0.970353454447661,992.8205128205128,811.0989010989011,817.5457875457876,705.1282051282052,0,-0.069275,0.263977,1.146484,4.418793,-11.110535,5.630035,1,4,1,1,4,65.000000
2024-11-24 12:49:58.536,,,,,,,,,,,,,,,,,,,,,,,,,,,,,,,,,,,,,,/muse/elements/blink
2024-11-24 12:49:58.547,0.740217016679527,0.4521169707485753,0.7691572042713061,1.742175938210649,0.2779204316463247,-0.01030052189990258,0.4188181723093153,1.617040612608027,0.8249854329632623,0.2109211843803897,0.4485019331784403,1.503971278467165,0.921782175328966,-0.004335444811989666,0.0458012973761221,1.043652012254099,0.4203624783010247,-0.5042923052402996,-0.2924347638007118,0.970353454447661,697.8754578754579,801.8315018315019,805.0549450549451,821.5750915750916,0,-0.190247,0.202393,1.353882,-0.411224,5.921631,8.620758,1,4,1,1,4,65.000000
2024-11-24 12:49:59.043,0.740217016679527,0.5335441158835785,0.649004994890823,1.742175938210649,0.2779204316463247,0.00322989914910063,0.3403221360241133,1.617040612608027,0.8249854329632623,0.04925045501898151,0.4585103957891812,1.503971278467165,0.921782175328966,-0.0801467981513251,0.05434653046377241,1.043652012254099,0.4203624783010247,-0.5072391407564808,-0.3001777821666496,0.970353454447661,553.2234432234433,803.8461538461539,809.0842490842491,58.02197802197802,130.1465201465201,-0.211731,0.118530,1.319580,3.185120,0.800018,-2.482300,1,4,1,1,4,65.000000
2024-11-24 12:49:59.543,0.740217016679527,0.6401376644196063,0.3725236829393732,1.742175938210649,0.2779204316463247,0.02923338689265031,0.1389857833962095,1.617040612608027,0.8249854329632623,0.2473199504730988,0.4585103957891812,1.503971278467165,0.921782175328966,-0.07028318943336802,0.05628439761506256,1.043652012254099,0.4203624783010247,-0.4785622236923781,-0.351667132405351,0.970353454447661,972.6739926739928,808.6813186813187,801.8315018315019,72.93040293040293,1620.989010989011,-0.138245,0.213867,1.024841,1.667328,-3.117828,4.979553,1,4,1,1,4,65.000000
2024-11-24 12:50:00.037,,,,,,,,,,,,,,,,,,,,,,,,,,,,,,,,,,,,,,/muse/elements/blink
2024-11-24 12:50:00.048,0.740217016679527,0.6206532101545632,0.4054595800510395,1.742175938210649,0.2779204316463247,0.2583291654673967,0.03493119015069464,1.617040612608027,0.8249854329632623,0.3542424790643748,0.2968776636087236,1.503971278467165,0.921782175328966,0.03238063991605031,0.1248563874795489,1.043652012254099,0.4203624783010247,-0.3376043668249609,-0.3799493438794319,0.970353454447661,1115.714285714286,808.2783882783883,813.1135531135532,838.901098901099,700.6959706959707,-0.147034,0.009583,0.993286,5.966492,-8.097382,-1.667328,1,4,1,1,4,65.000000
2024-11-24 12:50:00.543,0.740217016679527,0.5641396196596222,0.5892438760168824,1.742175938210649,0.2779204316463247,0.238081776413975,0.1935398380507871,1.617040612608027,0.8249854329632623,0.4292679089665331,0.3328112932295517,1.503971278467165,0.921782175328966,0.1619688780094802,0.1671878710967487,1.043652012254099,0.4203624783010247,-0.1513297310119571,-0.36921425633497,0.970353454447661,345.3113553113553,798.6080586080586,795.7875457875458,593.5164835164835,0,-0.114868,0.171143,0.845459,2.265472,-11.058197,0.456085,1,4,1,1,4,65.000000
2024-11-24 12:50:00.974,,,,,,,,,,,,,,,,,,,,,,,,,,,,,,,,,,,,,,/muse/elements/blink
2024-11-24 12:50:01.043,0.740217016679527,0.5922992145131506,0.7119319535593734,1.742175938210649,0.2779204316463247,0.2744613829211724,0.4153350754674995,1.617040612608027,0.8249854329632623,0.4170999100570795,0.4181439475629508,1.503971278467165,0.921782175328966,0.2905196876847712,0.2165806287754545,1.043652012254099,0.4203624783010247,-0.08122997412875159,-0.3823749243608451,0.970353454447661,544.3589743589744,791.7582417582418,817.948717948718,900.1465201465202,731.3186813186813,-0.121155,0.075623,0.760559,10.138550,-1.846771,1.555176,1,4,1,1,4,65.000000
2024-11-24 12:50:01.549,0.740217016679527,0.6850301917305865,0.7294329980101516,1.742175938210649,0.2779204316463247,0.2268968932314822,0.5642086775452528,1.617040612608027,0.8249854329632623,0.5882050660485797,0.6087891861005101,1.503971278467165,0.921782175328966,0.3185499521825682,0.1987840595800109,1.043652012254099,0.4203624783010247,-0.006609570920980473,-0.2297764364482975,0.970353454447661,723.6630036630037,792.967032967033,793.7728937728938,1013.772893772894,1626.630036630037,-0.066711,0.252197,0.951477,2.990723,-6.826324,1.742096,1,4,1,1,4,65.000000
2024-11-24 12:50:01.771,,,,,,,,,,,,,,,,,,,,,,,,,,,,,,,,,,,,,,/muse/elements/blink
2024-11-24 12:50:02.043,0.740217016679527,0.7672628347170998,0.7061099647021238,1.742175938210649,0.2779204316463247,0.2529279647110131,0.6255568141620056,1.617040612608027,0.8249854329632623,0.5797126408239527,0.6623803636301905,1.503971278467165,0.921782175328966,0.2448162227451171,0.1700666033384825,1.043652012254099,0.4203624783010247,-0.05904928294416575,-0.1365494109696567,0.970353454447661,1156.813186813187,783.2967032967033,817.5457875457876,1422.747252747253,1626.630036630037,-0.023804,0.090881,1.080139,-1.525269,-3.506622,-3.185120,1,4,1,1,4,65.000000
2024-11-24 12:50:02.546,0.740217016679527,0.7470043338488671,0.7218711583054906,1.742175938210649,0.2779204316463247,0.3136947955237784,0.6343537135608333,1.617040612608027,0.8249854329632623,0.5807295338178119,0.727286837781728,1.503971278467165,0.921782175328966,0.1610926892997827,0.1807705228670845,1.043652012254099,0.4203624783010247,-0.1292485371111221,-0.1153649190775922,0.970353454447661,1586.336996336996,796.1904761904763,798.2051282051282,1301.868131868132,1626.630036630037,0.027100,0.240845,1.102295,10.602112,-9.779663,0.276642,1,4,1,1,4,65.000000
2024-11-24 12:50:02.993,,,,,,,,,,,,,,,,,,,,,,,,,,,,,,,,,,,,,,/muse/elements/blink
2024-11-24 12:50:03.052,0.740217016679527,0.7799575770112662,0.8889002610221497,1.742175938210649,0.2779204316463247,0.2168687364068468,0.666375381912662,1.617040612608027,0.8249854329632623,0.4642557680859201,0.7267441487569277,1.503971278467165,0.921782175328966,0.2133189194411552,0.2172692554513524,1.043652012254099,0.4203624783010247,-0.1529001171541715,-0.09605417779899551,0.970353454447661,1401.794871794872,784.1025641025641,840.5128205128206,1222.893772893773,1627.435897435897,-0.018860,0.046631,1.332031,4.418793,-8.949738,-2.901001,1,4,1,1,4,65.000000
2024-11-24 12:50:03.204,,,,,,,,,,,,,,,,,,,,,,,,,,,,,,,,,,,,,,/muse/elements/blink
2024-11-24 12:50:03.514,,,,,,,,,,,,,,,,,,,,,,,,,,,,,,,,,,,,,,/muse/elements/blink
2024-11-24 12:50:03.546,0.740217016679527,0.662778409236185,1.005847799298283,1.742175938210649,0.2779204316463247,0.2405769829049542,0.7164023952375307,1.617040612608027,0.8249854329632623,0.550781108727737,0.7267446635817749,1.503971278467165,0.921782175328966,0.2662296430968132,0.2500297077467106,1.043652012254099,0.4203624783010247,-0.1729903741147129,-0.150638800113123,0.970353454447661,1214.835164835165,790.1465201465202,803.4432234432235,1459.41391941392,527.032967032967,0.126038,0.317627,1.091125,9.607697,-26.804352,13.361053,1,4,1,1,4,65.000000
2024-11-24 12:50:04.032,,,,,,,,,,,,,,,,,,,,,,,,,,,,,,,,,,,,,,/muse/elements/blink
2024-11-24 12:50:04.047,0.740217016679527,0.7682511108136629,1.258195642010236,1.742175938210649,0.2779204316463247,0.2480647525327324,0.8310618084039063,1.617040612608027,0.8249854329632623,0.6676446341900988,0.6717911684762767,1.503971278467165,0.921782175328966,0.2427576839516928,0.288857241351169,1.043652012254099,0.4203624783010247,-0.123859654350523,-0.09597684477600919,0.970353454447661,650.3296703296703,794.5787545787546,806.6666666666667,98.31501831501832,0,-0.141907,0.111084,1.176758,7.843170,-1.323395,-21.204224,1,4,1,1,4,65.000000
2024-11-24 12:50:04.199,,,,,,,,,,,,,,,,,,,,,,,,,,,,,,,,,,,,,,/muse/elements/blink
2024-11-24 12:50:04.543,0.740217016679527,0.7826110301651098,1.314663451094249,1.742175938210649,0.2779204316463247,0.439577751959465,0.750898588164038,1.617040612608027,0.8249854329632623,0.6765535985963994,0.6241710601627576,1.503971278467165,0.921782175328966,0.1745151845273151,0.2271033858230269,1.043652012254099,0.4203624783010247,-0.2018776924333705,-0.2943506084278013,0.970353454447661,8.864468864468865,801.8315018315019,795.3846153846154,0.4029304029304029,0,-0.099487,0.057312,1.153687,1.031799,15.447083,-4.441223,1,4,1,1,4,65.000000
2024-11-24 12:50:05.044,0.740217016679527,0.7827182308393456,1.088598180460471,1.742175938210649,0.2779204316463247,0.3681693624097042,0.4741061106923449,1.617040612608027,0.8249854329632623,0.6566528341416273,0.6041769592626458,1.503971278467165,0.921782175328966,0.08923754173639165,0.1107563835872271,1.043652012254099,0.4203624783010247,-0.2401424314182629,-0.4143245618242715,0.970353454447661,809.8901098901099,811.0989010989011,807.0695970695971,0,734.1391941391942,-0.153931,0.208069,1.145325,0.231781,-8.717957,5.166473,1,4,1,1,4,65.000000
2024-11-24 12:50:05.092,,,,,,,,,,,,,,,,,,,,,,,,,,,,,,,,,,,,,,/muse/elements/blink
2024-11-24 12:50:05.325,,,,,,,,,,,,,,,,,,,,,,,,,,,,,,,,,,,,,,/muse/elements/blink
2024-11-24 12:50:05.549,0.740217016679527,0.5990528562321031,0.683742369370858,1.742175938210649,0.2779204316463247,0.2356140218698171,0.1645632052753937,1.617040612608027,0.8249854329632623,0.5527864221444279,0.3893319122659115,1.503971278467165,0.921782175328966,0.02955225276091806,0.04499483425946021,1.043652012254099,0.4203624783010247,-0.1880302754125588,-0.2900429123448851,0.970353454447661,299.3772893772894,799.4139194139194,796.5934065934066,532.6739926739926,0,-0.022644,0.042114,0.817627,9.308624,-1.338348,9.734802,1,4,1,1,4,65.000000
2024-11-24 12:50:05.938,,,,,,,,,,,,,,,,,,,,,,,,,,,,,,,,,,,,,,/muse/elements/blink
2024-11-24 12:50:06.045,0.740217016679527,0.4493983968287817,0.4976219603730462,1.742175938210649,0.2779204316463247,-0.0613487622088944,0.2917310453908209,1.617040612608027,0.8249854329632623,0.5221242624842897,0.5296977602374986,1.503971278467165,0.921782175328966,0.006445876929519952,0.01692849678548294,1.043652012254099,0.4203624783010247,-0.1931231169029975,-0.3136329946960094,0.970353454447661,550.4029304029305,795.3846153846154,815.934065934066,715.2014652014652,6.84981684981685,-0.107117,0.123596,0.798157,-3.125305,-3.992615,-6.759033,1,4,1,1,4,65.000000
2024-11-24 12:50:06.546,,,,,,,,,,,,,,,,,,,,,,,,,,,,,,,,,,,,,,/muse/elements/blink
2024-11-24 12:50:06.549,0.740217016679527,0.6697711767302658,0.7736529421180277,1.742175938210649,0.2779204316463247,0.3349716388924593,0.7313196720312805,1.617040612608027,0.8249854329632623,0.598327749472971,0.8397042039835756,1.503971278467165,0.921782175328966,0.158325618462109,0.162158100925515,1.043652012254099,0.4203624783010247,-0.03218479566768327,-0.2788997576133415,0.970353454447661,562.0879120879121,772.8205128205128,832.0512820512821,896.5201465201466,1625.824175824176,-0.041748,0.014465,0.839966,3.723450,-7.387085,20.905151,1,4,1,1,4,65.000000
2024-11-24 12:50:06.830,,,,,,,,,,,,,,,,,,,,,,,,,,,,,,,,,,,,,,/muse/elements/blink
2024-11-24 12:50:07.043,0.740217016679527,0.7828449417750054,0.8725236784316411,1.742175938210649,0.2779204316463247,0.4654896433250545,0.8363777289366354,1.617040612608027,0.8249854329632623,0.5908614510730152,0.8181133776753845,1.503971278467165,0.921782175328966,0.2272967704766734,0.2033431464207858,1.043652012254099,0.4203624783010247,-0.01606886484577594,-0.3163614961231694,0.970353454447661,1352.234432234432,803.8461538461539,811.5018315018315,959.7802197802198,1626.630036630037,0.037598,0.216492,1.045288,4.366455,-8.732910,-1.345825,1,4,1,1,4,65.000000
2024-11-24 12:50:07.070,,,,,,,,,,,,,,,,,,,,,,,,,,,,,,,,,,,,,,/muse/elements/blink
2024-11-24 12:50:07.444,,,,,,,,,,,,,,,,,,,,,,,,,,,,,,,,,,,,,,/muse/elements/blink
2024-11-24 12:50:07.555,0.740217016679527,1.003229315057881,1.117205519443812,1.742175938210649,0.2779204316463247,0.6884655247961848,1.116671707820117,1.617040612608027,0.8249854329632623,0.5908614510730152,0.7892618752689199,1.503971278467165,0.921782175328966,0.4001450611616175,0.3785315853974213,1.043652012254099,0.4203624783010247,0.2007551395018472,-0.3840984608303634,0.970353454447661,1333.296703296703,801.8315018315019,802.2344322344322,1108.864468864469,1616.153846153846,0.033325,0.070801,1.225891,4.209442,-10.751648,-1.069183,1,4,1,1,4,65.000000
2024-11-24 12:50:08.043,0.740217016679527,1.003229315057881,1.117205519443812,1.742175938210649,0.2779204316463247,0.6884655247961848,1.116671707820117,1.617040612608027,0.8249854329632623,0.5908614510730152,0.7892618752689199,1.503971278467165,0.921782175328966,0.4001450611616175,0.3785315853974213,1.043652012254099,0.4203624783010247,0.2007551395018472,-0.3840984608303634,0.970353454447661,384.3956043956044,869.92673992674,716.007326007326,408.974358974359,0,-0.065063,0.105103,1.201355,-2.400055,7.529144,-29.338989,1,4,1,1,4,60.000000
2024-11-24 12:50:08.544,0.740217016679527,0.5891943630261968,1.145947725138615,1.742175938210649,0.2779204316463247,0.2336402885940699,0.8565736408608593,1.617040612608027,0.8249854329632623,0.3248505909582959,0.792482024250622,1.503971278467165,0.921782175328966,0.222538336693385,0.1719762517669591,1.043652012254099,0.4203624783010247,-0.05846654273083018,-0.3109346004579605,0.970353454447661,750.2564102564103,754.2857142857143,884.4322344322345,152.7106227106227,1021.428571428571,-0.019836,0.150879,1.026855,5.630035,-13.518066,11.005859,1,4,1,1,4,60.000000
2024-11-24 12:50:08.570,,,,,,,,,,,,,,,,,,,,,,,,,,,,,,,,,,,,,,/muse/elements/blink
2024-11-24 12:50:09.045,0.740217016679527,0.5891943630261968,1.145947725138615,1.742175938210649,0.2779204316463247,0.2336402885940699,0.8565736408608593,1.617040612608027,0.8249854329632623,0.3248505909582959,0.792482024250622,1.503971278467165,0.921782175328966,0.222538336693385,0.1719762517669591,1.043652012254099,0.4203624783010247,-0.05846654273083018,-0.3109346004579605,0.970353454447661,708.3516483516484,842.1245421245421,861.4652014652015,556.4468864468864,37.87545787545788,0.238831,0.073669,0.935547,2.220612,14.587250,5.689850,1,4,1,1,4,60.000000
2024-11-24 12:50:09.543,0.740217016679527,0.5891943630261968,1.270177600726117,1.742175938210649,0.2779204316463247,0.2336402885940699,0.9724509340676998,1.617040612608027,0.8249854329632623,0.3248505909582959,0.7900784898605655,1.503971278467165,0.921782175328966,0.222538336693385,0.1618296028252223,1.043652012254099,0.4203624783010247,-0.05846654273083018,-0.3019893050382497,0.970353454447661,577.3992673992674,801.4285714285714,813.919413919414,826.8131868131868,0,0.054016,0.133423,0.804749,4.590759,9.630127,3.678589,1,4,1,1,4,60.000000
2024-11-24 12:50:09.875,,,,,,,,,,,,,,,,,,,,,,,,,,,,,,,,,,,,,,/muse/elements/blink
2024-11-24 12:50:10.051,0.740217016679527,0.5891943630261968,1.270177600726117,1.742175938210649,0.2779204316463247,0.2336402885940699,0.9724509340676998,1.617040612608027,0.8249854329632623,0.3248505909582959,0.7900784898605655,1.503971278467165,0.921782175328966,0.222538336693385,0.1618296028252223,1.043652012254099,0.4203624783010247,-0.05846654273083018,-0.3019893050382497,0.970353454447661,594.3223443223443,807.4725274725275,813.1135531135532,680.952380952381,515.7509157509157,-0.028076,0.076721,0.853088,7.603912,-1.502838,8.329163,1,4,1,1,4,60.000000
2024-11-24 12:50:10.315,,,,,,,,,,,,,,,,,,,,,,,,,,,,,,,,,,,,,,/muse/elements/blink
2024-11-24 12:50:10.543,0.740217016679527,0.5722414759147324,1.270177600726117,1.742175938210649,0.2779204316463247,0.2297238084190009,0.9724509340676998,1.617040612608027,0.8249854329632623,0.4594295797133037,0.7900784898605655,1.503971278467165,0.921782175328966,0.3067296406348456,0.1618296028252223,1.043652012254099,0.4203624783010247,-0.02398287059193581,-0.3019893050382497,0.970353454447661,1185.421245421245,793.3699633699634,803.8461538461539,918.2783882783883,1626.227106227106,-0.033325,0.276672,1.096985,13.413391,-4.276733,6.661835,1,4,1,1,4,60.000000
2024-11-24 12:50:10.576,,,,,,,,,,,,,,,,,,,,,,,,,,,,,,,,,,,,,,/muse/elements/blink
2024-11-24 12:50:10.901,,,,,,,,,,,,,,,,,,,,,,,,,,,,,,,,,,,,,,/muse/elements/blink
2024-11-24 12:50:11.043,0.740217016679527,0.5163294472352528,0.7898029707017444,1.742175938210649,0.2779204316463247,0.2885287218319572,0.1566822696697454,1.617040612608027,0.8249854329632623,0.4935711622655706,0.1144770223007827,1.503971278467165,0.921782175328966,0.3042522326768666,0.3603756119449749,1.043652012254099,0.4203624783010247,0.04133933324972119,0.1063397268222277,0.970353454447661,369.4871794871795,804.2490842490843,806.2637362637363,420.6593406593407,0,-0.041809,0.238708,1.432556,6.160889,-4.216919,5.630035,1,4,1,1,4,60.000000
2024-11-24 12:50:11.186,,,,,,,,,,,,,,,,,,,,,,,,,,,,,,,,,,,,,,/muse/elements/blink
2024-11-24 12:50:11.543,0.740217016679527,0.380169890632335,0.804391008335171,1.742175938210649,0.2779204316463247,0.2611576852528786,0.4104271238299844,1.617040612608027,0.8249854329632623,0.4064994924234725,0.3523080215421767,1.503971278467165,0.921782175328966,0.3615343077942678,0.2737437947472887,1.043652012254099,0.4203624783010247,0.1002215593786669,0.03399006057055893,0.970353454447661,726.0805860805862,796.5934065934066,809.4871794871796,503.6630036630037,375.5311355311355,0.045227,0.106567,1.027649,0.052338,0.276642,-12.239532,1,4,1,1,4,60.000000
2024-11-24 12:50:11.609,,,,,,,,,,,,,,,,,,,,,,,,,,,,,,,,,,,,,,/muse/elements/blink
2024-11-24 12:50:12.032,,,,,,,,,,,,,,,,,,,,,,,,,,,,,,,,,,,,,,/muse/elements/blink
2024-11-24 12:50:12.043,0.740217016679527,0.8752070448082868,0.8971179642979746,1.742175938210649,0.2779204316463247,0.8126539432567087,0.5220990394164473,1.617040612608027,0.8249854329632623,0.5247659949738085,0.5067316929729504,1.503971278467165,0.921782175328966,0.1648771264467785,0.1769607885594061,1.043652012254099,0.4203624783010247,0.05043385098503949,-0.03327390049123013,0.970353454447661,1101.611721611722,809.4871794871796,797.3992673992674,620.5128205128206,636.2271062271062,0.068726,0.210815,0.920837,5.742188,-3.289795,6.953430,1,4,1,1,4,60.000000
2024-11-24 12:50:12.543,0.740217016679527,1.280505662162518,0.9180916131216125,1.742175938210649,0.2779204316463247,1.185017835225785,0.6482860459181319,1.617040612608027,0.8249854329632623,0.7818994724194397,0.5067316929729504,1.503971278467165,0.921782175328966,0.09692407501397275,0.1344943722544616,1.043652012254099,0.4203624783010247,-0.1662372272229791,-0.09470722297052303,0.970353454447661,240.5494505494506,793.7728937728938,801.4285714285714,357.3992673992674,0,0.235779,0.136536,0.954468,3.072968,-5.861816,0.254211,1,4,1,1,4,60.000000
2024-11-24 12:50:12.731,,,,,,,,,,,,,,,,,,,,,,,,,,,,,,,,,,,,,,/muse/elements/blink
2024-11-24 12:50:13.052,0.740217016679527,1.202329590427283,0.9783852696513127,1.742175938210649,0.2779204316463247,1.06352312022074,0.658349733579245,1.617040612608027,0.8249854329632623,0.8167732665330814,0.4997710123401144,1.503971278467165,0.921782175328966,0.1098053510098101,0.1037038204945195,1.043652012254099,0.4203624783010247,-0.07919001425400125,-0.1427916963267759,0.970353454447661,785.3113553113553,800.2197802197802,805.4578754578755,719.6336996336996,1021.428571428571,0.148132,0.190552,0.975037,3.386993,-3.648682,2.287903,1,4,1,1,4,60.000000
2024-11-24 12:50:13.543,0.740217016679527,1.094338862473203,0.9783852696513127,1.742175938210649,0.2779204316463247,0.9601187575564252,0.658349733579245,1.617040612608027,0.8249854329632623,0.8199381482952702,0.4997710123401144,1.503971278467165,0.921782175328966,0.07530330598837105,0.1037038204945195,1.043652012254099,0.4203624783010247,-0.08557694236228723,-0.1427916963267759,0.970353454447661,730.1098901098901,805.8608058608058,804.6520146520147,864.6886446886447,1224.102564102564,0.095947,0.179565,0.998535,1.861725,1.779480,3.454285,1,2,1,1,2,60.000000
2024-11-24 12:50:13.871,,,,,,,,,,,,,,,,,,,,,,,,,,,,,,,,,,,,,,/muse/elements/blink
2024-11-24 12:50:14.043,0.740217016679527,0.8287823663531269,0.2730330923130255,1.742175938210649,0.2779204316463247,0.6687782751076352,0.006740757230028386,1.617040612608027,0.8249854329632623,0.6321865021086304,0.124855642942109,1.503971278467165,0.921782175328966,0.03769026261065505,-0.1839450486278991,1.043652012254099,0.4203624783010247,-0.1025575192169747,-0.3629854466157802,0.970353454447661,774.0293040293041,800.6227106227107,793.7728937728938,882.014652014652,734.9450549450549,0.091980,0.154602,1.002991,1.547699,0.171967,1.831818,1,2,1,1,2,60.000000
2024-11-24 12:50:14.543,0.740217016679527,0.4410854435397368,0.6548550383885637,1.742175938210649,0.2779204316463247,0.4578009596661503,0.4894321778082802,1.617040612608027,0.8249854329632623,0.4498528112922713,0.4866895193765622,1.503971278467165,0.921782175328966,0.02637547330090833,-0.05183036498620523,1.043652012254099,0.4203624783010247,-0.1578301452878483,-0.3227447054609778,0.970353454447661,813.919413919414,777.2527472527473,821.1721611721612,926.7399267399268,654.7619047619048,0.115112,0.145813,0.993347,5.517883,-4.157104,10.392761,1,2,1,1,2,60.000000
2024-11-24 12:50:15.046,0.740217016679527,0.7431522966943295,0.7215507753323875,1.742175938210649,0.2779204316463247,0.4291741851882569,0.5469604601006361,1.617040612608027,0.8249854329632623,0.6156511962188747,0.5735770126473266,1.503971278467165,0.921782175328966,0.06562595617615483,-0.01053625127609395,1.043652012254099,0.4203624783010247,-0.07413658668570654,-0.3323803961692189,0.970353454447661,818.3516483516484,795.3846153846154,796.996336996337,862.2710622710623,934.7985347985348,0.115967,0.137756,0.988037,2.243042,1.009369,0.119629,1,2,1,1,2,60.000000
2024-11-24 12:50:15.362,,,,,,,,,,,,,,,,,,,,,,,,,,,,,,,,,,,,,,/muse/elements/blink
2024-11-24 12:50:15.543,0.740217016679527,1.029270387142237,1.05238752188052,1.742175938210649,0.2779204316463247,0.5741205399526101,0.8212776011484172,1.617040612608027,0.8249854329632623,0.6356914684977539,0.6558913410957077,1.503971278467165,0.921782175328966,0.1480233600496972,0.1185804397371818,1.043652012254099,0.4203624783010247,-0.0815735838583373,-0.2543067794600222,0.970353454447661,749.047619047619,805.8608058608058,788.5347985347986,954.9450549450549,1180.989010989011,0.016113,0.132690,1.007202,2.033691,10.168457,-5.181427,1,2,1,1,2,60.000000
2024-11-24 12:50:15.785,,,,,,,,,,,,,,,,,,,,,,,,,,,,,,,,,,,,,,/muse/elements/blink
2024-11-24 12:50:16.056,1.489967817903982,1.108372893699964,1.256734850463258,1.742175938210649,1.566654137232107,0.636230268889508,0.9320299773944644,1.617040612608027,1.468826956590604,0.7117861973193751,0.6276319765747586,1.503971278467165,1.426846931510952,0.1751732166256947,0.15306956519005,1.043652012254099,1.222406635860424,-0.1052656975004797,-0.2381798822472734,0.970353454447661,798.2051282051282,799.0109890109891,798.6080586080586,858.2417582417582,642.6739926739926,-0.022400,0.142334,1.006348,3.970184,-0.403748,0.037384,1,1,1,1,2,60.000000
2024-11-24 12:50:16.543,1.470132390845454,0.9524371781101625,1.096745536997797,1.742175938210649,1.542491591029888,0.4545032075636837,0.7841819146433333,1.617040612608027,1.470324473837518,0.6558941978694272,0.6262803715553398,1.503971278467165,1.390600203510148,0.1741351474388742,0.1360404708602988,1.043652012254099,1.216979019133973,-0.2507329268795743,-0.2789185231851472,0.970353454447661,805.0549450549451,806.2637362637363,800.6227106227107,785.3113553113553,796.5934065934066,-0.015015,0.156067,1.006531,2.609406,-0.986938,-4.538422,1,1,1,1,1,60.000000
2024-11-24 12:50:17.043,1.386148104541771,0.7460795458462774,1.009498664284069,1.742175938210649,1.438117470372866,0.3770265405898102,0.7228114419562337,1.617040612608027,1.447577262084148,0.6882428321294294,0.5783986611137663,1.503971278467165,1.260992219574255,0.1348868353853704,0.1608038761930497,1.043652012254099,1.100922480570509,-0.2461253292500659,-0.2625577196332592,0.970353454447661,795.3846153846154,813.5164835164835,793.3699633699634,766.7765567765568,815.1282051282052,-0.052185,0.141235,1.002625,0.919647,-2.213135,-3.783264,1,1,1,1,1,60.000000
2024-11-24 12:50:17.543,1.137186950146153,0.8108252489973294,1.041441938069569,1.742175938210649,0.980107285863507,0.3629365726649774,0.6704910845016995,1.617040612608027,1.431548122469311,0.7202370947430586,0.7494165628833726,1.503971278467165,1.183514998169075,0.1151005962608362,0.2233887212760738,1.043652012254099,0.9666498721947956,-0.2118945638891082,-0.2587850094487658,0.970353454447661,749.047619047619,765.1648351648352,834.0659340659341,526.2271062271062,658.7912087912088,-0.039551,0.173889,1.010803,6.145935,-12.254486,-85.018768,1,1,1,1,1,60.000000
2024-11-24 12:50:17.807,,,,,,,,,,,,,,,,,,,,,,,,,,,,,,,,,,,,,,/muse/elements/blink
2024-11-24 12:50:18.047,1.033335615910237,1.150838772382614,1.179305506762401,1.742175938210649,0.6738006178856694,0.8018675095888234,0.7597504360476252,1.617040612608027,1.122763780396545,0.9267402358566701,0.7377461846371619,1.503971278467165,1.162346605149426,0.1655247461909649,0.2767751976697814,1.043652012254099,0.8814574883401081,0.06140265340067318,-0.1980693876422892,0.970353454447661,763.5531135531136,813.1135531135532,807.8754578754579,603.5897435897436,893.6996336996338,0.035461,0.104858,1.031433,4.321594,1.943970,19.462128,1,1,1,1,1,60.000000
2024-11-24 12:50:18.319,,,,,,,,,,,,,,,,,,,,,,,,,,,,,,,,,,,,,,/muse/elements/blink
2024-11-24 12:50:18.543,1.055676245116337,1.339699446383242,1.285529027540744,1.742175938210649,0.6580763970159773,1.11642921758071,0.7173172276819429,1.617040612608027,1.113836642908331,0.9377004370566864,0.7200253120530794,1.503971278467165,1.237118370361395,0.2247460361541875,0.3117138343723492,1.043652012254099,0.9947473088349267,0.5505591973249924,-0.2121344358910045,0.970353454447661,752.2710622710623,809.0842490842491,774.8351648351648,1609.70695970696,1016.190476190476,-0.037170,0.143250,1.005249,7.446899,0.112152,17.129364,1,1,1,1,4,65.000000
2024-11-24 12:50:19.046,1.099900519464261,1.453283388350474,1.285529027540744,1.742175938210649,0.6435104503811607,1.303996296872621,0.7173172276819429,1.617040612608027,1.113836642908331,0.931043027779448,0.7200253120530794,1.503971278467165,1.236270283787633,0.279955639513632,0.3117138343723492,1.043652012254099,1.029270666005707,0.7501017987824048,-0.2121344358910045,0.970353454447661,773.2234432234433,803.8461538461539,809.4871794871796,906.1904761904763,732.9304029304029,-0.001038,0.123840,0.997192,2.138367,-0.874786,-0.560760,1,1,1,1,4,65.000000
2024-11-24 12:50:19.359,,,,,,,,,,,,,,,,,,,,,,,,,,,,,,,,,,,,,,/muse/elements/blink
2024-11-24 12:50:19.543,1.099900519464261,0.9644491512617499,1.285529027540744,1.742175938210649,0.6435104503811607,0.8448132349657067,0.7173172276819429,1.617040612608027,1.113836642908331,0.887255312755903,0.7200253120530794,1.503971278467165,1.236270283787633,0.006510121109912549,0.3117138343723492,1.043652012254099,1.029270666005707,0.3867394341647523,-0.2121344358910045,0.970353454447661,806.2637362637363,800.2197802197802,809.4871794871796,815.934065934066,882.014652014652,-0.018433,0.129456,1.008606,2.669220,-1.046753,-1.016846,1,1,1,1,1,65.000000
