TimeStamp,Delta_TP9,Delta_AF7,Delta_AF8,Delta_TP10,Theta_TP9,Theta_AF7,Theta_AF8,Theta_TP10,Alpha_TP9,Alpha_AF7,Alpha_AF8,Alpha_TP10,Beta_TP9,Beta_AF7,Beta_AF8,Beta_TP10,Gamma_TP9,Gamma_AF7,Gamma_AF8,Gamma_TP10,RAW_TP9,RAW_AF7,RAW_AF8,RAW_TP10,AUX_RIGHT,Accelerometer_X,Accelerometer_Y,Accelerometer_Z,Gyro_X,Gyro_Y,Gyro_Z,HeadBandOn,HSI_TP9,HSI_AF7,HSI_AF8,HSI_TP10,Battery,Elements
2024-12-01 15:58:42.764,,,,,,,,,,,,,,,,,,,,,,,,,,,,,,,,,,,,,,/muse/event/connected Muse-D2D3
2024-12-01 15:58:43.265,1.146224956037246,-0.2210475852652603,-0.01054110851618294,1.563764199627373,0.9650664377063505,-0.1299871785596561,-0.4616042792917966,1.454618365367986,1.03017219555191,-0.2067891326831708,-0.05696148431137241,1.627039670484949,0.6277221280015854,-0.1179048558217566,0.07223115530891079,1.279774195051648,0.4332850565970373,-0.02900686010695426,-0.2479212539090543,1.239447463508713,793.3699633699634,792.1611721611722,793.3699633699634,792.5641025641025,994.4322344322345,-0.386536,0.073425,0.942993,2.639313,-1.906586,1.450500,1,1,1,1,1,70.000000
2024-12-01 15:58:43.771,1.072244651668337,-0.08699809379986283,-0.1329916978724404,1.654471629829095,0.7030351155424845,-0.2222121526679085,-0.3857743546873615,1.4574119223506,0.9728720838200474,-0.1476138357239103,0.2102516115301259,1.616217588377099,0.5855491826323018,-0.05957060736197476,0.07244938889021826,1.328643608306907,0.2909724402541066,-0.04718188112603264,-0.271490658640495,1.265473153993089,811.9047619047619,808.6813186813187,792.967032967033,848.974358974359,649.5238095238095,-0.371948,0.087219,0.945007,2.482300,-1.338348,0.777588,1,1,1,1,1,70.000000
2024-12-01 15:58:44.270,0.774058267754349,-0.1644127026903283,-0.04899888657043918,1.654471629829095,0.3128723752769792,-0.2594257386000124,-0.2306120112151228,1.4574119223506,0.5795388281487961,0.03171783543720837,0.204536064700895,1.616217588377099,0.5641167261391103,-0.01581965526649925,0.1316469718381933,1.328643608306907,0.2565617607091206,0.02766088369873925,-0.2972977516332968,1.265473153993089,810.2930402930403,797.8021978021978,797.3992673992674,790.5494505494506,755.8974358974359,-0.373413,0.081360,0.950989,3.117828,-2.856140,-0.224304,1,1,1,1,1,70.000000
2024-12-01 15:58:44.765,0.9106206443945161,-0.04469268655642192,0.1460574678921896,1.081297502133335,0.7835201672433773,-0.16711098095015,-0.07077470476445537,1.553640121672782,0.966361789227249,0.1850723189321321,0.1976406968150896,1.224379573350877,0.5628206607682451,0.0160731552102554,0.1256797142016537,1.686018321460165,0.3063979639998906,0.05810301565026951,-0.3648174622944269,1.033805505052031,812.3076923076924,784.1025641025641,794.1758241758242,792.967032967033,1161.648351648352,-0.376282,0.090759,0.942078,3.177643,-1.839294,0.598145,1,1,1,1,1,70.000000
2024-12-01 15:58:45.267,0.9266210971949603,0.7327109484087182,0.6435048956170314,1.081297502133335,0.9355378950318778,0.6630143299532472,0.3223583444083999,1.553640121672782,0.966361789227249,0.3741665821554745,0.1257635542351484,1.224379573350877,0.5648776714506215,0.1325781753544918,0.09401242449309917,1.686018321460165,0.3364819875041405,0.01446565684450935,-0.3339813346746638,1.033805505052031,801.025641025641,808.6813186813187,797.8021978021978,767.985347985348,730.1098901098901,-0.369446,0.090454,0.947998,3.065491,-0.127106,1.181335,1,1,1,1,1,70.000000
2024-12-01 15:58:45.766,1.038716731798312,0.7267350667036584,0.6104370691917058,1.030164870586919,1.096357436319021,0.6625968459004974,0.3200219804375222,1.486288920775424,0.966361789227249,0.3741665821554745,0.07081820123110726,1.352701614101284,0.5388373595152374,0.1838832765223188,-0.05541753205796446,1.699718259159112,0.3951443730754147,-0.0358702166888024,-0.3686044738939457,1.228536787289448,789.7435897435897,797.3992673992674,802.2344322344322,820.7692307692308,644.6886446886447,-0.365479,0.114990,0.943298,3.349609,-2.392578,1.600037,1,1,1,1,1,70.000000
2024-12-01 15:58:46.267,1.093287996750153,0.7398486318919314,0.5112905216204248,0.6891254583217528,1.147816420123868,0.6471604735242829,0.1934724112374087,1.333501416923964,0.966361789227249,0.2900671238428543,0.0302129957654324,1.345898336489847,0.5116946880903011,0.2294628411135111,-0.08072930496624438,1.739867275339086,0.416961050546123,-0.2236793153479268,-0.4451219404030119,1.497744536150377,806.6666666666667,798.6080586080586,802.2344322344322,789.3406593406594,1026.263736263736,-0.379822,0.109253,0.936829,2.310333,-1.704712,0.545807,1,1,1,1,1,70.000000
2024-12-01 15:58:46.765,1.209920501602008,0.1699437046299744,-0.07408573639229087,0.6891254583217528,1.142807480160811,-0.0800405272382028,-0.3657714520830106,1.333501416923964,0.9449490626706893,0.1963256479259476,-0.009783236428735537,1.345898336489847,0.7414047612048474,0.2270790973767631,0.171889589944597,1.739867275339086,0.600595951519157,-0.03592775054969927,-0.2228168918279025,1.497744536150377,800.2197802197802,807.0695970695971,803.040293040293,799.0109890109891,1095.970695970696,-0.376953,0.104309,0.925232,1.764526,-0.919647,0.112152,1,1,1,1,1,70.000000
2024-12-01 15:58:47.268,1.209920501602008,0.1151059019828314,-0.2448933019625861,0.559534293567868,1.142807480160811,-0.2525168228059969,-0.6009678120309608,1.343009248972422,0.9449490626706893,0.209733009585391,-0.09734018634272507,1.280912271592268,0.7414047612048474,0.2571389345779161,0.2423888442606238,1.745336126634655,0.600595951519157,-0.006181769665059167,-0.07541395158412466,1.51027389991395,793.7728937728938,792.5641025641025,801.4285714285714,802.2344322344322,803.040293040293,-0.372986,0.147461,0.865601,1.540222,-1.659851,-2.205658,1,1,1,1,1,70.000000
2024-12-01 15:58:47.765,1.296279384710281,0.06285023537168023,-0.2171847279462789,0.5595548357490249,1.20007530131145,-0.1406570267835988,-0.5560397547602055,1.356762549119705,1.187913670887328,0.2038977844849696,-0.08906229453844079,1.175937309207858,0.645684366369721,0.1871559163009804,0.2328381006709995,1.714105124069002,0.5841395735415224,0.03265555250741155,-0.02550218354893051,1.499611951370063,794.1758241758242,794.981684981685,793.3699633699634,857.032967032967,1134.652014652015,-0.285889,0.044617,0.933167,2.960815,-0.044861,-1.323395,1,1,1,1,1,70.000000
2024-12-01 15:58:48.265,1.330316938500516,0.08250470031901921,-0.2879880150780263,0.5595548357490249,1.121028887968417,-0.01839799201412818,-0.4271000585718103,1.356762549119705,1.102627331573079,0.1228796371639023,-0.1311277244412665,1.175937309207858,0.6055331328345656,0.1184237678884105,0.03291603414035966,1.714105124069002,0.467177782525894,-0.08295179738336497,-0.1882558885856942,1.499611951370063,818.3516483516484,807.4725274725275,812.7106227106227,752.6739926739926,926.7399267399268,-0.375488,0.016602,0.894104,6.706696,-2.886047,-3.319702,1,1,1,1,1,70.000000
2024-12-01 15:58:48.295,,,,,,,,,,,,,,,,,,,,,,,,,,,,,,,,,,,,,,/muse/elements/blink
2024-12-01 15:58:48.765,1.330316938500516,0.4816696695739651,0.1865399326520129,0.5595548357490249,1.121028887968417,0.8376175193249372,0.6184776953188905,1.356762549119705,1.102627331573079,0.632301918209038,0.5661805345717187,1.175937309207858,0.6055331328345656,0.1265170798496333,0.06862107417902712,1.714105124069002,0.467177782525894,-0.09670197632593433,-0.2270990354584461,1.499611951370063,787.7289377289378,790.1465201465202,800.6227106227107,846.5567765567765,1176.959706959707,-0.326233,0.125610,0.898376,-4.388885,1.099091,-3.723450,1,1,1,1,1,70.000000
2024-12-01 15:58:49.265,1.330316938500516,0.7916846802271535,0.4197537997916224,0.5595548357490249,1.121028887968417,1.06049788206419,0.7477356364679661,1.356762549119705,1.102627331573079,0.6421135945598349,0.5678301551759145,1.175937309207858,0.6055331328345656,0.2046874864051277,0.1174635878900685,1.714105124069002,0.467177782525894,-0.1337184570498541,-0.1772862264607314,1.499611951370063,752.6739926739926,832.4542124542124,801.4285714285714,776.8498168498169,957.3626373626374,-0.411133,0.145508,1.170715,2.474823,-0.441132,6.482391,1,1,1,1,1,65.000000
2024-12-01 15:58:49.459,,,,,,,,,,,,,,,,,,,,,,,,,,,,,,,,,,,,,,/muse/elements/blink
2024-12-01 15:58:49.765,1.330316938500516,1.017630657211464,0.6799706249506733,0.5595548357490249,1.121028887968417,1.220186809847863,0.8543702707162258,1.356762549119705,1.102627331573079,0.7099831222450962,0.5700777492124288,1.175937309207858,0.6055331328345656,0.3097100129565851,0.2075963223348363,1.714105124069002,0.467177782525894,-0.1529883428566687,-0.1100269017547343,1.499611951370063,851.7948717948718,805.4578754578755,810.2930402930403,840.9157509157509,502.4542124542125,-0.378784,0.050110,0.850769,4.605713,9.555359,-2.848663,1,2,1,1,2,65.000000
2024-12-01 15:58:50.265,1.330316938500516,1.165873123001366,0.8044619330526654,0.5595548357490249,1.121028887968417,1.24242148539803,0.7255727865202881,1.356762549119705,1.102627331573079,0.6925187064786862,0.5565252862413552,1.175937309207858,0.6055331328345656,0.3382338209132342,0.3997617873818187,1.714105124069002,0.467177782525894,-0.1847430389764805,0.196984040622916,1.499611951370063,755.8974358974359,790.1465201465202,788.9377289377289,759.5238095238095,1075.421245421245,-0.338867,0.118042,0.903015,2.676697,-3.065491,-4.194489,1,2,1,1,2,65.000000
2024-12-01 15:58:50.764,1.330316938500516,1.03056063123183,0.885728361647396,0.5595548357490249,1.121028887968417,0.8878338938703831,0.7072203559327677,1.356762549119705,1.102627331573079,0.5889340641485673,0.4517605275258283,1.175937309207858,0.6055331328345656,0.5222144271777867,0.4238940994865955,1.714105124069002,0.467177782525894,0.0478513342627127,0.3195271119326651,1.499611951370063,807.0695970695971,796.5934065934066,792.967032967033,804.6520146520147,589.4871794871796,-0.362122,0.025269,0.887939,2.915955,-1.383209,-0.986938,1,2,1,1,2,65.000000
2024-12-01 15:58:51.265,1.330316938500516,0.6985528792465117,0.8108841504676625,0.5595548357490249,1.121028887968417,0.4991207522727113,0.6077401929328136,1.356762549119705,1.102627331573079,0.2510524796367198,0.4200987324189588,1.175937309207858,0.6055331328345656,0.4344586590194695,0.3698122234344983,1.714105124069002,0.467177782525894,0.02231348734106077,0.2921219933272001,1.499611951370063,841.3186813186813,809.4871794871796,801.025641025641,816.3369963369963,956.5567765567766,-0.403687,0.035522,0.879700,5.173950,0.770111,-4.695435,1,2,1,1,2,65.000000
2024-12-01 15:58:51.695,,,,,,,,,,,,,,,,,,,,,,,,,,,,,,,,,,,,,,/muse/elements/blink
2024-12-01 15:58:51.782,1.330316938500516,0.6324854314904188,0.6354346638199183,0.5595548357490249,1.121028887968417,0.5349422484336381,0.5462829114301255,1.356762549119705,1.102627331573079,0.3346344214425768,0.3912848216974371,1.175937309207858,0.6055331328345656,0.3022030707508211,0.1064443614852373,1.714105124069002,0.467177782525894,-0.09855916092147141,0.0183793819929816,1.499611951370063,797.8021978021978,788.5347985347986,802.6373626373627,796.1904761904763,409.3772893772894,-0.338623,0.113220,0.840454,-0.209351,-3.058014,0.014954,1,2,1,1,2,65.000000
2024-12-01 15:58:52.269,1.330316938500516,0.6031049263514079,0.8037407748510221,0.5595548357490249,1.121028887968417,0.5807549638180314,0.5044491424342193,1.356762549119705,1.102627331573079,0.4448614715511933,0.1597091940126886,1.175937309207858,0.6055331328345656,-0.02889968021497295,0.01760107842994491,1.714105124069002,0.467177782525894,-0.2636636357360724,-0.3824618684761486,1.499611951370063,781.2820512820513,800.6227106227107,794.981684981685,1022.637362637363,1059.304029304029,-0.283203,0.047852,0.872559,5.076752,-0.687866,6.213226,1,2,1,1,2,65.000000
2024-12-01 15:58:52.281,,,,,,,,,,,,,,,,,,,,,,,,,,,,,,,,,,,,,,/muse/elements/blink
2024-12-01 15:58:52.701,,,,,,,,,,,,,,,,,,,,,,,,,,,,,,,,,,,,,,/muse/elements/blink
2024-12-01 15:58:52.765,1.523650969252427,0.6291121384570619,0.7268951032481096,0.5595548357490249,1.594995468003093,0.6063533036349629,0.388193377018269,1.356762549119705,1.660411866972279,0.4448614715511933,0.1213086325734733,1.175937309207858,1.556734382917902,0.04037140392564739,-0.03900794383390451,1.714105124069002,0.6860173774863951,-0.3257215904987887,-0.4106320700637356,1.499611951370063,818.7545787545788,803.040293040293,787.7289377289378,632.1978021978022,311.0622710622711,-0.280029,0.178040,0.965393,-4.284210,5.936584,-0.254211,1,2,1,1,2,65.000000
2024-12-01 15:58:53.265,1.523650969252427,0.4830192769685974,0.7466090700435138,0.5595548357490249,1.594995468003093,0.4577156059373288,0.3799238713544298,1.356762549119705,1.660411866972279,0.4501980415421271,0.09795640125830574,1.175937309207858,1.556734382917902,0.227733392067512,-0.06555991315447265,1.714105124069002,0.6860173774863951,-0.3364654473814822,-0.4504277915634659,1.499611951370063,824.7985347985348,801.8315018315019,799.0109890109891,805.0549450549451,958.974358974359,-0.378967,0.156555,0.989319,-0.381317,-1.861725,8.418884,1,1,1,1,1,65.000000
2024-12-01 15:58:53.765,1.804569672021706,0.2050025095961125,0.3277641015381194,0.5595548357490249,1.466741978515558,0.386303609439048,0.03087458646623562,1.356762549119705,1.727259073935904,0.2095118423300923,0.02834811433813213,1.175937309207858,1.633570258262768,0.2577223106543103,-0.1037930803862245,1.714105124069002,0.7555658630132192,-0.3274118817055741,-0.5714730570907427,1.499611951370063,755.0915750915751,811.0989010989011,829.6336996336996,722.8571428571429,546.3736263736264,-0.371765,0.070862,0.836731,4.785156,-1.151428,-0.044861,1,1,1,1,1,65.000000
2024-12-01 15:58:53.793,,,,,,,,,,,,,,,,,,,,,,,,,,,,,,,,,,,,,,/muse/elements/blink
2024-12-01 15:58:54.264,1.825985697717033,0.6583486863492765,0.4904913948489968,0.5595548357490249,1.480951894355329,0.6652204459062973,0.4802147711363818,1.356762549119705,1.686365091522731,0.4430275740764222,0.4866944405525032,1.175937309207858,1.625862913855136,0.3072019659589232,0.02962244827202354,1.714105124069002,0.739835502248379,-0.04507131079314138,-0.3336447871207144,1.499611951370063,753.0769230769231,807.4725274725275,799.8168498168499,973.0769230769231,1099.194139194139,-0.263245,0.154236,0.890259,2.250519,-3.020630,-2.579498,1,1,1,1,1,65.000000
2024-12-01 15:58:54.770,1.825985697717033,0.9076184789016118,0.6978745218179414,0.5595548357490249,1.480951894355329,0.8023316600670062,0.6688848934047333,1.356762549119705,1.686365091522731,0.4468460738602777,0.5173966228845949,1.175937309207858,1.625862913855136,0.3631858704569373,0.1342676641858863,1.714105124069002,0.739835502248379,0.1881347705313207,-0.1129153647317873,1.499611951370063,801.4285714285714,792.5641025641025,788.9377289377289,840.9157509157509,1171.318681318681,-0.369324,-0.022034,1.057007,3.028107,-0.500946,-0.336456,1,1,1,1,2,65.000000
2024-12-01 15:58:54.991,,,,,,,,,,,,,,,,,,,,,,,,,,,,,,,,,,,,,,/muse/elements/blink
2024-12-01 15:58:55.265,1.851398928799413,0.9414309325922561,0.6683691018118336,0.5595548357490249,1.498241436623759,0.748852990166136,0.6473703616954041,1.356762549119705,1.61610988910682,0.5558939779114885,0.5908159281025135,1.175937309207858,1.589444983988727,0.3226646906185817,0.1284572459297119,1.714105124069002,0.7737621407626991,0.2317874202003215,-0.1008962087548398,1.499611951370063,794.1758241758242,806.6666666666667,800.2197802197802,866.3003663003664,771.2087912087912,-0.497681,0.094666,1.209778,2.960815,-5.076752,-4.628143,1,1,1,1,2,65.000000
2024-12-01 15:58:55.765,1.851398928799413,0.8712254744683703,0.5037536716389646,0.5595548357490249,1.498241436623759,0.5472984772194995,0.4022146698025525,1.356762549119705,1.61610988910682,0.6769889834606466,0.6063076947141459,1.175937309207858,1.589444983988727,0.2502884509799563,0.1294857444257295,1.714105124069002,0.7737621407626991,0.1333030766858422,-0.1098909614006712,1.499611951370063,885.2380952380953,809.0842490842491,792.5641025641025,757.1062271062272,678.5347985347986,-0.370605,0.140503,0.851624,-0.403748,1.816864,1.457977,1,1,1,1,2,65.000000
2024-12-01 15:58:56.274,1.851398928799413,0.9521553415540777,0.4690711658957722,0.5595548357490249,1.498241436623759,0.5834689993294466,0.2912929010351167,1.356762549119705,1.61610988910682,0.8778042033875065,0.7300899141592819,1.175937309207858,1.589444983988727,0.2226937022206623,0.1206299109774821,1.714105124069002,0.7737621407626991,-0.08711997544557036,-0.1345937177168397,1.499611951370063,783.6996336996338,782.0879120879121,793.3699633699634,697.8754578754579,680.1465201465202,-0.352234,0.070251,0.851196,4.904785,2.205658,1.973877,1,1,1,1,2,65.000000
2024-12-01 15:58:56.765,1.851398928799413,0.9450508866757237,0.6247955358729134,0.5595548357490249,1.498241436623759,0.6128158094965945,0.4020832934912257,1.356762549119705,1.61610988910682,0.8766385675911594,0.680680748937133,1.175937309207858,1.589444983988727,0.2298156470677082,0.1413286407607464,1.714105124069002,0.7737621407626991,-0.09012705424026922,-0.0498609089743681,1.499611951370063,841.7216117216118,796.5934065934066,796.5934065934066,790.952380952381,523.0036630036631,-0.349243,0.154053,0.928528,3.244934,0.261688,-0.702820,1,2,1,1,2,65.000000
2024-12-01 15:58:57.272,1.851398928799413,0.8379080616390686,0.6823612698974471,0.5595548357490249,1.498241436623759,0.587061456811831,0.3745092100175373,1.356762549119705,1.61610988910682,0.8420973257350653,0.606624409462208,1.175937309207858,1.589444983988727,0.266006095638802,0.1138322008908572,1.714105124069002,0.7737621407626991,-0.1286722581386944,-0.09871549995958462,1.499611951370063,825.6043956043957,810.6959706959707,796.5934065934066,740.5860805860806,971.0622710622711,-0.443115,0.155151,0.963074,1.936493,-0.216827,3.671112,1,2,1,1,2,65.000000
2024-12-01 15:58:57.765,1.798869579158654,0.4172931539724526,0.5413415234794304,0.5595548357490249,1.506699833775063,0.2189484259399544,0.2056312153248867,1.356762549119705,1.370443099434285,0.2057921855689047,0.2299612175031237,1.175937309207858,1.439339514483094,0.2091430533280467,0.08368693217844271,1.714105124069002,0.6649919016668191,-0.1304739795921855,-0.1612970750550554,1.499611951370063,779.2673992673992,803.8461538461539,797.8021978021978,799.4139194139194,438.7912087912088,-0.401062,0.064575,0.794495,2.586975,-4.216919,4.456177,1,1,1,1,2,65.000000
2024-12-01 15:58:58.264,1.860729154803026,0.2755099617155004,0.9258412317455061,0.5595548357490249,1.617696139825354,0.2659047428691975,0.6554426398314032,1.356762549119705,1.49379713632717,0.2020610812332073,0.3528353031893339,1.175937309207858,1.561032938019702,0.2517251103959157,0.1590646293524851,1.714105124069002,0.6914391496852926,-0.229481202601979,-0.1731889991831647,1.499611951370063,774.4322344322345,799.8168498168499,795.7875457875458,763.956043956044,869.5238095238095,-0.284180,0.128723,0.868225,0.441132,-1.233673,-5.787048,1,1,1,1,2,65.000000
2024-12-01 15:58:58.765,1.860729154803026,0.2099496077411974,0.888571028587517,0.5595548357490249,1.617696139825354,0.08836185559358971,0.6658240026018044,1.356762549119705,1.49379713632717,0.0419448275669034,0.3386962223467999,1.175937309207858,1.561032938019702,0.2738526830085173,0.1465789716019408,1.714105124069002,0.6914391496852926,-0.4240906858759041,-0.259692763028692,1.499611951370063,835.6776556776557,806.2637362637363,792.967032967033,744.6153846153846,1297.032967032967,-0.412292,0.046997,0.974792,4.381409,9.383392,6.101074,1,1,1,1,2,65.000000
2024-12-01 15:58:59.193,,,,,,,,,,,,,,,,,,,,,,,,,,,,,,,,,,,,,,/muse/elements/blink
2024-12-01 15:58:59.277,1.931156212649091,0.4392479410013962,0.8516785955899444,0.5595548357490249,1.736099255891819,0.3281936074344918,0.5734203279740031,1.356762549119705,1.439068248514349,0.2073300743840815,0.3882119935599462,1.175937309207858,1.611306737197367,0.1944501968248564,0.1528491100920882,1.714105124069002,0.7274779223640468,-0.372614157805645,-0.3736172678706122,1.499611951370063,776.0439560439561,794.981684981685,795.7875457875458,864.6886446886447,432.7472527472528,-0.385986,0.082520,1.006042,3.940277,-4.299164,-3.925323,1,1,1,1,2,65.000000
2024-12-01 15:58:59.495,,,,,,,,,,,,,,,,,,,,,,,,,,,,,,,,,,,,,,/muse/elements/blink
2024-12-01 15:58:59.765,1.931156212649091,1.074555135500703,0.8736933008023664,0.5595548357490249,1.736099255891819,0.8818269459100011,0.3543893202213785,1.356762549119705,1.439068248514349,0.4915285841167576,0.2045505705062625,1.175937309207858,1.611306737197367,0.1915918073940114,0.1095351176987298,1.714105124069002,0.7274779223640468,-0.3861678067075993,-0.3398614518135544,1.499611951370063,771.6117216117216,794.1758241758242,798.6080586080586,875.9706959706959,267.1428571428572,-0.343506,0.130615,0.806396,-0.927124,-0.276642,5.839386,1,1,1,1,2,65.000000
2024-12-01 15:59:00.201,,,,,,,,,,,,,,,,,,,,,,,,,,,,,,,,,,,,,,/muse/elements/jaw_clench
2024-12-01 15:59:00.265,1.931156212649091,1.114319738318473,0.9563397537462756,0.5595548357490249,1.736099255891819,0.886012125382406,0.402722815033135,1.356762549119705,1.439068248514349,0.4915285841167576,0.2079469148574746,1.175937309207858,1.611306737197367,0.2036095482920341,0.1994759135945134,1.714105124069002,0.7274779223640468,-0.352568395175207,-0.2479891788507414,1.499611951370063,729.7069597069598,787.3260073260074,787.7289377289378,697.4725274725275,693.8461538461538,-0.334717,0.063293,0.846558,1.869202,9.136658,8.531036,1,1,1,1,2,65.000000
2024-12-01 15:59:00.386,,,,,,,,,,,,,,,,,,,,,,,,,,,,,,,,,,,,,,/muse/elements/blink
2024-12-01 15:59:00.617,,,,,,,,,,,,,,,,,,,,,,,,,,,,,,,,,,,,,,/muse/elements/blink
2024-12-01 15:59:00.772,1.931156212649091,1.30175716624268,1.14029743582743,0.5595548357490249,1.736099255891819,1.07355034756488,0.5439973698734788,1.356762549119705,1.439068248514349,0.4915285841167576,0.07660239566027049,1.175937309207858,1.611306737197367,0.2142935423267013,0.2430190465434832,1.714105124069002,0.7274779223640468,-0.3728512880552524,-0.1204662605578271,1.499611951370063,857.8388278388279,824.3956043956044,813.919413919414,925.1282051282052,1493.663003663004,-0.404297,0.174500,1.011230,-0.441132,5.039368,-2.564545,1,2,1,1,2,65.000000
2024-12-01 15:59:00.900,,,,,,,,,,,,,,,,,,,,,,,,,,,,,,,,,,,,,,/muse/elements/blink
2024-12-01 15:59:01.265,1.931156212649091,1.146165942550151,0.9387093764547171,0.5595548357490249,1.736099255891819,0.8094225734618249,0.2671225608340566,1.356762549119705,1.439068248514349,0.310658488046311,-0.1832455462851531,1.175937309207858,1.611306737197367,0.2547853107264848,0.3092035535079965,1.714105124069002,0.7274779223640468,-0.3483901324288718,-0.2526475129055956,1.499611951370063,794.1758241758242,796.5934065934066,803.8461538461539,654.7619047619048,1253.516483516484,-0.475464,0.162231,1.188049,7.955322,1.136475,11.484375,1,2,1,1,2,65.000000
2024-12-01 15:59:01.502,,,,,,,,,,,,,,,,,,,,,,,,,,,,,,,,,,,,,,/muse/elements/blink
2024-12-01 15:59:01.769,1.931156212649091,1.146165942550151,0.8139703085222142,0.5595548357490249,1.736099255891819,0.8094225734618249,0.4825171558674754,1.356762549119705,1.439068248514349,0.310658488046311,0.3083570102644623,1.175937309207858,1.611306737197367,0.2547853107264848,0.09295907859912887,1.714105124069002,0.7274779223640468,-0.3483901324288718,-0.007343609974230731,1.499611951370063,859.047619047619,815.1282051282052,790.952380952381,761.1355311355312,307.8388278388279,-0.411133,0.060730,0.844604,3.297272,0.426178,-4.538422,1,2,1,1,2,65.000000
2024-12-01 15:59:01.848,,,,,,,,,,,,,,,,,,,,,,,,,,,,,,,,,,,,,,/muse/elements/blink
2024-12-01 15:59:02.130,,,,,,,,,,,,,,,,,,,,,,,,,,,,,,,,,,,,,,/muse/elements/blink
2024-12-01 15:59:02.265,1.931156212649091,0.9108943053318079,0.6138811243933008,0.5595548357490249,1.736099255891819,0.3596187798436594,0.255385599791701,1.356762549119705,1.439068248514349,0.3760413922769286,0.352766231219226,1.175937309207858,1.611306737197367,0.3560890423706158,0.05261124586608716,1.714105124069002,0.7274779223640468,0.06932060635799545,-0.05173470498428787,1.499611951370063,782.4908424908425,802.6373626373627,782.4908424908425,785.7142857142858,758.3150183150184,-0.363831,0.141724,0.798340,-2.437439,0.134583,-1.450500,1,2,1,1,2,65.000000
2024-12-01 15:59:02.770,1.931156212649091,0.8744777233274696,0.5123398171921426,0.5595548357490249,1.736099255891819,0.4205583837722936,0.1515650872277736,1.356762549119705,1.439068248514349,0.41362754228288,0.3656160006880361,1.175937309207858,1.611306737197367,0.625091309949556,0.2751993463480087,1.714105124069002,0.7274779223640468,0.3819564424514598,0.08402362935309142,1.499611951370063,905.3846153846154,813.1135531135532,803.4432234432235,847.3626373626374,1626.630036630037,-0.442444,0.076904,1.042419,-1.084137,-9.817047,8.007660,1,2,1,1,2,65.000000
2024-12-01 15:59:02.829,,,,,,,,,,,,,,,,,,,,,,,,,,,,,,,,,,,,,,/muse/elements/blink
2024-12-01 15:59:03.249,,,,,,,,,,,,,,,,,,,,,,,,,,,,,,,,,,,,,,/muse/elements/blink
2024-12-01 15:59:03.265,1.931156212649091,0.9299731668717941,0.2880168074764749,0.5595548357490249,1.736099255891819,0.4406969548955234,-0.05384125457026587,1.356762549119705,1.439068248514349,0.7764396330474467,0.2531710784694352,1.175937309207858,1.611306737197367,0.7057616683821287,0.3478551202591277,1.714105124069002,0.7274779223640468,0.453833408874105,0.119346770207797,1.499611951370063,651.5384615384615,778.4615384615385,782.0879120879121,678.5347985347986,0,-0.462646,0.053406,0.836853,0.351410,-9.331055,-2.482300,1,2,1,1,2,65.000000
2024-12-01 15:59:03.765,1.931156212649091,0.9782153027237842,0.4793675540604415,0.5595548357490249,1.736099255891819,0.5546070052000412,0.09126612302096712,1.356762549119705,1.439068248514349,0.7764396330474467,0.332390435412487,1.175937309207858,1.611306737197367,0.7772101808295571,0.3542086964515697,1.714105124069002,0.7274779223640468,0.4975875338278845,0.1327532935352017,1.499611951370063,789.3406593406594,811.5018315018315,813.5164835164835,755.0915750915751,0,-0.415955,0.199890,0.794861,-0.231781,-5.510406,-2.437439,1,2,1,1,2,65.000000
2024-12-01 15:59:03.946,,,,,,,,,,,,,,,,,,,,,,,,,,,,,,,,,,,,,,/muse/elements/blink
2024-12-01 15:59:04.265,1.931156212649091,1.107381733541991,0.5585288901810567,0.5595548357490249,1.736099255891819,0.7044667139097479,0.4297490585973643,1.356762549119705,1.439068248514349,0.827492794967898,0.549194686404582,1.175937309207858,1.611306737197367,0.8226510296944854,0.3057977731662935,1.714105124069002,0.7274779223640468,0.472148374218516,0.06269278578442813,1.499611951370063,753.8827838827839,786.9230769230769,797.3992673992674,656.7765567765568,1252.307692307692,-0.360840,0.067322,0.853638,3.760834,7.686157,9.981537,1,2,1,1,2,65.000000
2024-12-01 15:59:04.643,,,,,,,,,,,,,,,,,,,,,,,,,,,,,,,,,,,,,,/muse/elements/blink
2024-12-01 15:59:04.771,1.931156212649091,1.076620791315165,0.5320554538106341,0.5595548357490249,1.736099255891819,0.7491499373324685,0.5054875280593918,1.356762549119705,1.439068248514349,0.8741596338897396,0.6012012896470204,1.175937309207858,1.611306737197367,0.8392294778830206,0.3153903955195806,1.714105124069002,0.7274779223640468,0.4214009574255165,0.05935035665309378,1.499611951370063,956.959706959707,827.2161172161173,807.4725274725275,728.0952380952381,1292.197802197802,-0.444275,0.190430,0.907837,-1.413116,2.123413,1.091614,1,2,1,1,2,65.000000
2024-12-01 15:59:05.181,,,,,,,,,,,,,,,,,,,,,,,,,,,,,,,,,,,,,,/muse/elements/blink
2024-12-01 15:59:05.265,1.931156212649091,1.073303579260286,0.3523516372742735,0.5595548357490249,1.736099255891819,0.7321541298727597,0.4557768736745236,1.356762549119705,1.439068248514349,0.8411823803030317,0.6012012896470204,1.175937309207858,1.611306737197367,0.7593288314222414,0.3949941898395424,1.714105124069002,0.7274779223640468,0.376654602828144,0.1071061481202252,1.499611951370063,819.96336996337,772.014652014652,775.2380952380953,883.6263736263736,616.4835164835165,-0.431702,0.196533,0.971130,3.491669,-8.433838,1.861725,1,2,1,1,2,65.000000
2024-12-01 15:59:05.777,1.931156212649091,1.076794395505778,0.5188140974382528,0.5595548357490249,1.736099255891819,0.6957477776918579,0.3610173930917996,1.356762549119705,1.439068248514349,0.7884839727964824,0.4898776771019139,1.175937309207858,1.611306737197367,0.712230698884089,0.376285006953344,1.714105124069002,0.7274779223640468,0.4007652250101948,0.1204099672856121,1.499611951370063,708.3516483516484,796.5934065934066,795.3846153846154,860.6593406593407,0,-0.431152,0.057678,0.819214,7.394562,0.186920,-3.020630,1,2,1,1,2,65.000000
2024-12-01 15:59:05.787,,,,,,,,,,,,,,,,,,,,,,,,,,,,,,,,,,,,,,/muse/elements/blink
2024-12-01 15:59:06.273,1.931156212649091,1.156314287101217,0.6166156274351614,0.5595548357490249,1.736099255891819,0.757020061358342,0.3155506247823471,1.356762549119705,1.439068248514349,0.6711906239075993,0.3254667046265541,1.175937309207858,1.611306737197367,0.5909119021999376,0.3140482690081515,1.714105124069002,0.7274779223640468,0.2777996219453663,0.1066597068019567,1.499611951370063,754.2857142857143,796.996336996337,789.7435897435897,786.5201465201466,1055.677655677656,-0.398499,0.161133,0.837036,-1.375732,-1.629944,-3.820648,1,2,1,1,2,65.000000
2024-12-01 15:59:06.285,,,,,,,,,,,,,,,,,,,,,,,,,,,,,,,,,,,,,,/muse/elements/blink
2024-12-01 15:59:06.585,,,,,,,,,,,,,,,,,,,,,,,,,,,,,,,,,,,,,,/muse/elements/blink
2024-12-01 15:59:06.765,1.931156212649091,1.30228547395114,0.6899431957687081,0.5595548357490249,1.736099255891819,0.687835187367121,0.2845175939808302,1.356762549119705,1.439068248514349,0.4422528353905618,0.2202246929287718,1.175937309207858,1.611306737197367,0.47485570849982,0.2401540566723307,1.714105124069002,0.7274779223640468,0.0301152570444041,-0.06720306825114146,1.499611951370063,884.4322344322345,831.6483516483516,807.4725274725275,956.959706959707,1626.630036630037,-0.386292,0.050598,1.055115,5.181427,0.366364,2.302856,1,2,1,1,2,65.000000
2024-12-01 15:59:07.101,,,,,,,,,,,,,,,,,,,,,,,,,,,,,,,,,,,,,,/muse/elements/blink
2024-12-01 15:59:07.267,1.931156212649091,1.316516218408801,0.5607547985865042,0.5595548357490249,1.736099255891819,0.7153055027792181,0.09986832684113714,1.356762549119705,1.439068248514349,0.4469966064620099,0.07440659098325095,1.175937309207858,1.611306737197367,0.383597214071066,0.1394580654231784,1.714105124069002,0.7274779223640468,-0.2251940170860481,-0.200870685446482,1.499611951370063,675.3113553113553,807.8754578754579,807.8754578754579,746.2271062271062,2.014652014652015,-0.477234,0.133789,1.115173,9.375916,-16.830292,-20.733185,1,2,1,1,2,65.000000
2024-12-01 15:59:07.500,,,,,,,,,,,,,,,,,,,,,,,,,,,,,,,,,,,,,,/muse/elements/blink
2024-12-01 15:59:07.765,1.931156212649091,1.331641425013275,0.5976073880027437,0.5595548357490249,1.736099255891819,0.8144469022958453,0.2921887748203959,1.356762549119705,1.439068248514349,0.5495442625537915,0.2372504267377749,1.175937309207858,1.611306737197367,0.3772044998252109,0.08922413775542835,1.714105124069002,0.7274779223640468,-0.315978260059854,-0.3240863192027381,1.499611951370063,840.1098901098901,811.0989010989011,803.040293040293,765.1648351648352,0,-0.348694,0.232178,0.833374,-3.215027,-0.328979,9.188995,1,2,1,1,2,65.000000
2024-12-01 15:59:07.802,,,,,,,,,,,,,,,,,,,,,,,,,,,,,,,,,,,,,,/muse/elements/blink
2024-12-01 15:59:08.130,,,,,,,,,,,,,,,,,,,,,,,,,,,,,,,,,,,,,,/muse/elements/blink
2024-12-01 15:59:08.265,1.931156212649091,1.405854987030219,0.6506541608380171,0.5595548357490249,1.736099255891819,0.8806422354270528,0.3400373887941923,1.356762549119705,1.439068248514349,0.5900362583097004,0.4173541861508018,1.175937309207858,1.611306737197367,0.3298880357780393,0.03508370684022583,1.714105124069002,0.7274779223640468,-0.3023849230250529,-0.3398850195271111,1.499611951370063,731.7216117216118,799.0109890109891,786.5201465201466,717.2161172161173,78.97435897435898,-0.357605,0.054749,0.831299,-0.710297,0.807495,3.910370,1,2,1,1,2,65.000000
2024-12-01 15:59:08.318,,,,,,,,,,,,,,,,,,,,,,,,,,,,,,,,,,,,,,/muse/elements/blink
2024-12-01 15:59:08.718,,,,,,,,,,,,,,,,,,,,,,,,,,,,,,,,,,,,,,/muse/elements/blink
2024-12-01 15:59:08.775,1.931156212649091,1.357501370700963,0.670036979545425,0.5595548357490249,1.736099255891819,0.8874134834724295,0.3368487720965429,1.356762549119705,1.439068248514349,0.7108368145800817,0.4206493407425979,1.175937309207858,1.611306737197367,0.3305121200915855,0.05046992880837855,1.714105124069002,0.7274779223640468,-0.1667171681177484,-0.3323782350770079,1.499611951370063,709.5604395604396,784.5054945054945,792.1611721611722,773.2234432234433,81.3919413919414,-0.294250,0.116394,0.833923,-4.418793,-3.708496,-0.485992,1,2,1,1,2,65.000000
2024-12-01 15:59:09.138,,,,,,,,,,,,,,,,,,,,,,,,,,,,,,,,,,,,,,/muse/elements/blink
2024-12-01 15:59:09.270,1.931156212649091,1.317205085694402,0.7186431853669402,0.5595548357490249,1.736099255891819,0.988041889421193,0.1821968172314732,1.356762549119705,1.439068248514349,0.7050769307638021,0.4351923434297054,1.175937309207858,1.611306737197367,0.3024338512520472,0.03059398103420494,1.714105124069002,0.7274779223640468,-0.05193247534899812,-0.3447917274719012,1.499611951370063,865.4945054945056,823.992673992674,802.2344322344322,839.7069597069598,1621.391941391941,-0.362915,0.042908,1.013245,0.037384,0.971985,2.422485,1,2,1,1,2,65.000000
2024-12-01 15:59:09.350,,,,,,,,,,,,,,,,,,,,,,,,,,,,,,,,,,,,,,/muse/elements/blink
2024-12-01 15:59:09.765,1.931156212649091,1.222249570786605,0.6450273329833653,0.5595548357490249,1.736099255891819,0.96089820824845,0.1573604241295318,1.356762549119705,1.439068248514349,0.7567741899764987,0.1485027210089131,1.175937309207858,1.611306737197367,0.2614103327397095,-0.068332451661079,1.714105124069002,0.7274779223640468,-0.1225720986496442,-0.4532485442442516,1.499611951370063,679.3406593406594,815.934065934066,817.948717948718,713.5897435897436,0,-0.344482,0.164978,1.003723,1.405640,-1.667328,-8.112335,1,2,1,1,2,65.000000
2024-12-01 15:59:09.772,,,,,,,,,,,,,,,,,,,,,,,,,,,,,,,,,,,,,,/muse/elements/blink
2024-12-01 15:59:09.964,,,,,,,,,,,,,,,,,,,,,,,,,,,,,,,,,,,,,,/muse/elements/blink
2024-12-01 15:59:10.265,1.931156212649091,1.266368434577573,0.7233034540355419,0.5595548357490249,1.736099255891819,1.013618336734875,0.3734424925317616,1.356762549119705,1.439068248514349,0.7713889982692519,0.4463785295888584,1.175937309207858,1.611306737197367,0.3244653391745078,0.01501346057770639,1.714105124069002,0.7274779223640468,-0.140833581094419,-0.2898027690777218,1.499611951370063,892.4908424908425,812.7106227106227,806.6666666666667,934.7985347985348,1627.435897435897,-0.380005,0.194153,0.918396,0.471039,-0.104675,8.695526,1,2,1,1,2,60.000000
2024-12-01 15:59:10.667,,,,,,,,,,,,,,,,,,,,,,,,,,,,,,,,,,,,,,/muse/elements/blink
2024-12-01 15:59:10.765,1.931156212649091,1.300890356601461,0.6399359264379223,0.5595548357490249,1.736099255891819,0.8032846018766429,0.3149605181580786,1.356762549119705,1.439068248514349,0.7713889982692519,0.44645669077266,1.175937309207858,1.611306737197367,0.3365239102678469,0.04027335755245977,1.714105124069002,0.7274779223640468,-0.2574186538066821,-0.2220190221392729,1.499611951370063,652.7472527472528,796.996336996337,788.9377289377289,719.6336996336996,0.8058608058608059,-0.372437,0.054443,0.828674,0.837402,-3.237457,5.054321,1,2,1,1,2,60.000000
2024-12-01 15:59:10.833,,,,,,,,,,,,,,,,,,,,,,,,,,,,,,,,,,,,,,/muse/elements/blink
2024-12-01 15:59:11.265,1.931156212649091,1.303105615688236,0.7011877452079711,0.5595548357490249,1.736099255891819,0.8078840340476683,0.3620959703291398,1.356762549119705,1.439068248514349,0.7450989053482987,0.4590991857832749,1.175937309207858,1.611306737197367,0.3377831333223876,0.08373775271617388,1.714105124069002,0.7274779223640468,-0.2283839259026286,-0.169060929822862,1.499611951370063,767.1794871794872,794.5787545787546,791.7582417582418,819.1575091575091,1626.630036630037,-0.283081,0.108337,0.819214,1.951447,0.029907,-9.211426,1,2,1,1,2,60.000000
2024-12-01 15:59:11.603,,,,,,,,,,,,,,,,,,,,,,,,,,,,,,,,,,,,,,/muse/elements/blink
2024-12-01 15:59:11.765,1.931156212649091,1.270543102896071,0.5909694133232238,0.5595548357490249,1.736099255891819,0.9068246855157299,0.2549811213754822,1.356762549119705,1.439068248514349,0.68071630000575,0.4234975335900955,1.175937309207858,1.611306737197367,0.2499275811964407,0.05076702927752723,1.714105124069002,0.7274779223640468,-0.3762716259126895,-0.2611876321603971,1.499611951370063,920.2930402930403,809.4871794871796,803.040293040293,962.6007326007326,523.4065934065934,-0.324158,0.033020,0.973938,-0.762634,-4.859924,-7.902985,1,2,1,1,2,60.000000
2024-12-01 15:59:11.887,,,,,,,,,,,,,,,,,,,,,,,,,,,,,,,,,,,,,,/muse/elements/blink
2024-12-01 15:59:12.077,,,,,,,,,,,,,,,,,,,,,,,,,,,,,,,,,,,,,,/muse/elements/blink
2024-12-01 15:59:12.267,1.931156212649091,1.271611887863935,0.59818006978663,0.5595548357490249,1.736099255891819,0.984169153431077,0.166586229155367,1.356762549119705,1.439068248514349,0.5928827007727027,0.1834599585242848,1.175937309207858,1.611306737197367,0.1840354749278069,-0.02877826726183159,1.714105124069002,0.7274779223640468,-0.4397402484558722,-0.3031629982091407,1.499611951370063,832.8571428571429,803.4432234432235,805.0549450549451,576.5934065934066,2.014652014652015,-0.307983,0.169800,1.011169,-1.263580,-0.426178,-6.744080,1,2,1,1,2,60.000000
2024-12-01 15:59:12.765,1.931156212649091,1.393490156450496,0.6856894451338953,0.5595548357490249,1.736099255891819,1.099343383123666,0.1484161647876702,1.356762549119705,1.439068248514349,0.7655539819292911,0.1712402885947029,1.175937309207858,1.611306737197367,0.3203462018093211,-0.02010055312677355,1.714105124069002,0.7274779223640468,-0.2362150643371717,-0.2264509881896243,1.499611951370063,764.7619047619048,794.1758241758242,789.7435897435897,841.3186813186813,59.23076923076923,-0.371033,0.103882,0.940247,0.358887,7.289886,4.486084,1,2,1,1,2,60.000000
2024-12-01 15:59:12.800,,,,,,,,,,,,,,,,,,,,,,,,,,,,,,,,,,,,,,/muse/elements/blink
2024-12-01 15:59:13.010,,,,,,,,,,,,,,,,,,,,,,,,,,,,,,,,,,,,,,/muse/elements/blink
2024-12-01 15:59:13.174,,,,,,,,,,,,,,,,,,,,,,,,,,,,,,,,,,,,,,/muse/elements/blink
2024-12-01 15:59:13.265,1.931156212649091,1.497989913993158,0.6858068190969312,0.5595548357490249,1.736099255891819,0.9696638978785299,0.02323595364937712,1.356762549119705,1.439068248514349,0.765122711546714,0.203291215428882,1.175937309207858,1.611306737197367,0.4218803318724469,-0.03967991019251395,1.714105124069002,0.7274779223640468,-0.1762120612206026,-0.2021945930582887,1.499611951370063,832.4542124542124,793.7728937728938,794.5787545787546,913.8461538461539,0,-0.251221,0.034973,0.801697,3.005676,-0.994415,-3.783264,1,2,1,1,2,60.000000
2024-12-01 15:59:13.591,,,,,,,,,,,,,,,,,,,,,,,,,,,,,,,,,,,,,,/muse/elements/blink
2024-12-01 15:59:13.765,1.931156212649091,1.447573270124112,0.6333470746395511,0.5595548357490249,1.736099255891819,0.9505281649360043,0.3844983684729954,1.356762549119705,1.439068248514349,0.7727351837066646,0.2926510704313695,1.175937309207858,1.611306737197367,0.5037227464585914,0.1397839902137823,1.714105124069002,0.7274779223640468,-0.08675344691567238,-0.2074155662546174,1.499611951370063,692.6373626373627,789.7435897435897,781.6849816849817,728.901098901099,0,-0.266663,0.100769,0.807312,-2.601929,5.278625,4.560852,1,2,1,1,2,60.000000
2024-12-01 15:59:13.799,,,,,,,,,,,,,,,,,,,,,,,,,,,,,,,,,,,,,,/muse/elements/blink
2024-12-01 15:59:14.033,,,,,,,,,,,,,,,,,,,,,,,,,,,,,,,,,,,,,,/muse/elements/blink
2024-12-01 15:59:14.265,1.931156212649091,1.409037834565502,0.4983258599553526,0.5595548357490249,1.736099255891819,0.8336579115258862,0.4588739715753024,1.356762549119705,1.439068248514349,0.7103160158875688,0.2829742382839325,1.175937309207858,1.611306737197367,0.5308429648965672,0.1919142778991563,1.714105124069002,0.7274779223640468,-0.09388252246034906,-0.2873161240175089,1.499611951370063,751.8681318681319,792.967032967033,791.7582417582418,663.6263736263736,896.5201465201466,-0.264160,0.043213,0.885437,3.828125,3.147736,8.478699,1,2,1,1,2,60.000000
2024-12-01 15:59:14.389,,,,,,,,,,,,,,,,,,,,,,,,,,,,,,,,,,,,,,/muse/elements/blink
2024-12-01 15:59:14.644,,,,,,,,,,,,,,,,,,,,,,,,,,,,,,,,,,,,,,/muse/elements/blink
2024-12-01 15:59:14.775,1.931156212649091,1.235571625326924,0.4027921517986776,0.5595548357490249,1.736099255891819,0.8667505567845696,0.647501150732642,1.356762549119705,1.439068248514349,0.6918423746013025,0.297252515785579,1.175937309207858,1.611306737197367,0.641365883630531,0.3307311257795127,1.714105124069002,0.7274779223640468,0.0294817806193805,-0.2903402580610749,1.499611951370063,965.0183150183151,812.3076923076924,801.025641025641,866.7032967032967,1626.630036630037,-0.304016,0.161743,0.960510,-0.029907,-10.968475,-3.461761,1,2,1,1,2,60.000000
2024-12-01 15:59:15.097,,,,,,,,,,,,,,,,,,,,,,,,,,,,,,,,,,,,,,/muse/elements/blink
2024-12-01 15:59:15.274,1.931156212649091,1.305882617172093,0.5198070437599734,0.5595548357490249,1.736099255891819,1.291386019337219,0.5505671175303277,1.356762549119705,1.439068248514349,0.8066762866115875,0.04575036356942758,1.175937309207858,1.611306737197367,0.2191727660172994,0.1902721434190525,1.714105124069002,0.7274779223640468,-0.1246562945258533,-0.4308862176055795,1.499611951370063,780.4761904761905,808.2783882783883,792.5641025641025,849.3772893772895,377.1428571428572,-0.379456,0.047974,0.998596,5.031891,9.839478,1.764526,1,2,1,1,2,60.000000
2024-12-01 15:59:15.638,,,,,,,,,,,,,,,,,,,,,,,,,,,,,,,,,,,,,,/muse/elements/blink
2024-12-01 15:59:15.765,1.931156212649091,1.386611641347996,0.6473728844541673,0.5595548357490249,1.736099255891819,1.21523785333302,0.3596515006920651,1.356762549119705,1.439068248514349,0.8071814281064709,0.1890348038030013,1.175937309207858,1.611306737197367,0.2072258491269283,0.1585701474522218,1.714105124069002,0.7274779223640468,-0.1530860882422373,-0.4618072204354663,1.499611951370063,858.6446886446887,826.007326007326,804.2490842490843,860.6593406593407,1625.018315018315,-0.415161,0.088745,0.981079,5.959015,0.216827,-5.644989,1,2,1,1,2,60.000000
2024-12-01 15:59:15.853,,,,,,,,,,,,,,,,,,,,,,,,,,,,,,,,,,,,,,/muse/elements/blink
2024-12-01 15:59:16.065,,,,,,,,,,,,,,,,,,,,,,,,,,,,,,,,,,,,,,/muse/elements/blink
2024-12-01 15:59:16.235,,,,,,,,,,,,,,,,,,,,,,,,,,,,,,,,,,,,,,/muse/elements/blink
2024-12-01 15:59:16.269,1.931156212649091,1.36996198702686,0.7110287334681661,0.5595548357490249,1.736099255891819,1.185922907882573,0.2767928356277101,1.356762549119705,1.439068248514349,0.8071814281064709,0.208555417716897,1.175937309207858,1.611306737197367,0.2563764463033069,0.1650828244315588,1.714105124069002,0.7274779223640468,-0.1687347954916347,-0.4354577779594367,1.499611951370063,911.0256410256411,819.1575091575091,801.4285714285714,925.5311355311355,330.8058608058608,-0.318726,0.130493,0.806519,-0.276642,0.314026,2.235565,1,2,1,1,2,60.000000
2024-12-01 15:59:16.765,1.931156212649091,1.445389643710992,0.7841330365101252,0.5595548357490249,1.736099255891819,0.9688002233639611,-0.08247958236871283,1.356762549119705,1.439068248514349,0.6340742911404746,0.06062171559539305,1.175937309207858,1.611306737197367,0.2950135291547247,0.1373411461246332,1.714105124069002,0.7274779223640468,-0.2383632969269182,-0.4194089436688672,1.499611951370063,758.3150183150184,803.040293040293,790.5494505494506,583.040293040293,830.4395604395604,-0.323853,0.073669,0.844299,3.805695,-1.114044,4.471130,1,2,1,1,2,60.000000
2024-12-01 15:59:16.844,,,,,,,,,,,,,,,,,,,,,,,,,,,,,,,,,,,,,,/muse/elements/blink
2024-12-01 15:59:17.268,1.931156212649091,1.445389643710992,0.8036510665735077,0.5595548357490249,1.736099255891819,0.9688002233639611,0.4107293360998796,1.356762549119705,1.439068248514349,0.6340742911404746,0.1086765369128321,1.175937309207858,1.611306737197367,0.2950135291547247,0.005237278480435672,1.714105124069002,0.7274779223640468,-0.2383632969269182,-0.3444411844758551,1.499611951370063,838.901098901099,803.4432234432235,796.1904761904763,962.1978021978023,1626.630036630037,-0.419922,0.199951,1.058350,0.695343,-14.804077,1.158905,1,2,1,1,2,60.000000
2024-12-01 15:59:17.685,,,,,,,,,,,,,,,,,,,,,,,,,,,,,,,,,,,,,,/muse/elements/blink
2024-12-01 15:59:17.769,1.931156212649091,1.387479144252028,0.8413252670693595,0.5595548357490249,1.736099255891819,1.087948126175505,0.8438779267705324,1.356762549119705,1.439068248514349,0.8875176270856026,0.5038742057914734,1.175937309207858,1.611306737197367,0.538141898386457,-0.1484591061556069,1.714105124069002,0.7274779223640468,0.2388933657835857,-0.3587090162405627,1.499611951370063,767.1794871794872,792.967032967033,794.981684981685,832.8571428571429,28.60805860805861,-0.431763,0.117004,1.015381,-0.560760,-0.523376,8.807678,1,2,1,1,2,60.000000
2024-12-01 15:59:18.155,,,,,,,,,,,,,,,,,,,,,,,,,,,,,,,,,,,,,,/muse/elements/blink
2024-12-01 15:59:18.265,1.931156212649091,1.413144726827716,0.6970223709894537,0.5595548357490249,1.736099255891819,1.07557980702779,0.8308198873235704,1.356762549119705,1.439068248514349,0.8889994287487046,0.5769849974285616,1.175937309207858,1.611306737197367,0.5508807529919411,-0.09510167505151286,1.714105124069002,0.7274779223640468,0.2138875794839305,-0.3455393230161155,1.499611951370063,953.7362637362637,813.919413919414,809.8901098901099,908.6080586080586,670.8791208791209,-0.412109,0.075195,0.886597,9.869385,-3.416901,-5.293579,1,2,1,1,2,60.000000
2024-12-01 15:59:18.393,,,,,,,,,,,,,,,,,,,,,,,,,,,,,,,,,,,,,,/muse/elements/blink
2024-12-01 15:59:18.767,,,,,,,,,,,,,,,,,,,,,,,,,,,,,,,,,,,,,,/muse/elements/blink
2024-12-01 15:59:18.781,1.931156212649091,1.455666532121688,0.6199021598150024,0.5595548357490249,1.736099255891819,1.154504747635429,0.7467539874629487,1.356762549119705,1.439068248514349,1.011728032612232,0.6123261543976508,1.175937309207858,1.611306737197367,0.5509708340840794,-0.01188626292075591,1.714105124069002,0.7274779223640468,0.08846844173152141,-0.3831875497878814,1.499611951370063,775.2380952380953,808.2783882783883,801.8315018315019,780.4761904761905,0,-0.333496,0.166565,0.807251,-2.340240,2.400055,4.127197,1,2,1,1,2,60.000000
2024-12-01 15:59:19.265,1.931156212649091,1.526575336420612,0.4989570056365864,0.5595548357490249,1.736099255891819,1.200512347288608,0.5744896758539609,1.356762549119705,1.439068248514349,1.030475826545318,0.5746338488051981,1.175937309207858,1.611306737197367,0.4507599236466883,0.0682492918699867,1.714105124069002,0.7274779223640468,-0.1481166409095631,-0.2374129148063772,1.499611951370063,752.2710622710623,761.5384615384615,772.8205128205128,682.5641025641025,1236.190476190476,-0.331055,0.081848,0.837036,3.745880,-1.233673,7.140350,1,2,1,1,2,60.000000
2024-12-01 15:59:19.399,,,,,,,,,,,,,,,,,,,,,,,,,,,,,,,,,,,,,,/muse/elements/blink
2024-12-01 15:59:19.765,1.931156212649091,1.52401229089329,0.6623658303237679,0.5595548357490249,1.736099255891819,1.227181058736426,0.4277213501868186,1.356762549119705,1.439068248514349,1.003604052527625,0.4891996347325075,1.175937309207858,1.611306737197367,0.414730117894179,0.140722690293908,1.714105124069002,0.7274779223640468,-0.1845686340810119,-0.1236483877443538,1.499611951370063,905.7875457875458,812.3076923076924,802.2344322344322,792.1611721611722,1626.630036630037,-0.390259,0.206726,0.988525,0.157013,-0.882263,-2.953339,1,2,1,1,2,60.000000
2024-12-01 15:59:19.801,,,,,,,,,,,,,,,,,,,,,,,,,,,,,,,,,,,,,,/muse/elements/blink
2024-12-01 15:59:20.128,,,,,,,,,,,,,,,,,,,,,,,,,,,,,,,,,,,,,,/muse/elements/blink
2024-12-01 15:59:20.265,1.931156212649091,1.525575964319936,0.720912539744571,0.5595548357490249,1.736099255891819,1.256015541702694,0.4471226771250016,1.356762549119705,1.439068248514349,1.003583007955177,0.3011582059126718,1.175937309207858,1.611306737197367,0.294757726081157,0.2151928594615536,1.714105124069002,0.7274779223640468,-0.200579345010902,0.02461923314405851,1.499611951370063,769.1941391941392,803.8461538461539,796.1904761904763,992.4175824175825,0,-0.454651,0.175598,1.329712,2.788849,0.672913,4.157104,1,2,1,1,2,65.000000
2024-12-01 15:59:20.770,1.931156212649091,1.525575964319936,0.6193626307612513,0.5595548357490249,1.736099255891819,1.256015541702694,0.4358767282431886,1.356762549119705,1.439068248514349,1.003583007955177,0.5662194503269388,1.175937309207858,1.611306737197367,0.294757726081157,0.1975904066450955,1.714105124069002,0.7274779223640468,-0.200579345010902,0.01079766766880476,1.499611951370063,718.4249084249085,797.3992673992674,796.5934065934066,903.7728937728938,1041.575091575092,-0.368103,0.114563,0.954285,3.588867,0.568237,-8.874969,1,2,1,1,2,65.000000
2024-12-01 15:59:20.812,,,,,,,,,,,,,,,,,,,,,,,,,,,,,,,,,,,,,,/muse/elements/blink
2024-12-01 15:59:21.270,1.931156212649091,1.525575964319936,0.3938558146056809,0.5595548357490249,1.736099255891819,1.256015541702694,0.2681361099911005,1.356762549119705,1.439068248514349,1.003583007955177,0.5827406093516321,1.175937309207858,1.611306737197367,0.294757726081157,0.09483461694029001,1.714105124069002,0.7274779223640468,-0.200579345010902,-0.1855095900452725,1.499611951370063,814.3223443223443,805.8608058608058,799.8168498168499,856.2271062271062,0,-0.304077,0.187866,0.812805,-1.226196,-2.527161,6.295471,1,2,1,1,2,65.000000
2024-12-01 15:59:21.442,,,,,,,,,,,,,,,,,,,,,,,,,,,,,,,,,,,,,,/muse/elements/blink
2024-12-01 15:59:21.747,,,,,,,,,,,,,,,,,,,,,,,,,,,,,,,,,,,,,,/muse/elements/blink
2024-12-01 15:59:21.765,1.931156212649091,1.449878050076164,0.4201232304712317,0.5595548357490249,1.736099255891819,1.215063003375739,0.2565785547957639,1.356762549119705,1.439068248514349,0.5576094284425195,0.6043996389030148,1.175937309207858,1.611306737197367,0.3738877361364292,0.1276647697386434,1.714105124069002,0.7274779223640468,0.1147800998934165,-0.2337744544551618,1.499611951370063,773.2234432234433,788.5347985347986,793.3699633699634,649.1208791208792,1003.296703296703,-0.356262,0.058411,0.865479,0.261688,-4.172058,7.506714,1,2,1,1,2,65.000000
2024-12-01 15:59:21.938,,,,,,,,,,,,,,,,,,,,,,,,,,,,,,,,,,,,,,/muse/elements/blink
2024-12-01 15:59:22.275,1.931156212649091,1.466763505607273,0.5731539583750545,0.5595548357490249,1.736099255891819,1.167025917973781,0.2815706073927519,1.356762549119705,1.439068248514349,0.6472473185197511,0.3082791741658288,1.175937309207858,1.611306737197367,0.482245776409237,0.1400521636963098,1.714105124069002,0.7274779223640468,0.2126591606274362,-0.245096904929484,1.499611951370063,666.0439560439561,840.5128205128206,804.2490842490843,794.1758241758242,1626.630036630037,-0.267151,0.140564,0.876648,1.345825,-8.882446,-6.512299,1,2,1,1,2,65.000000
2024-12-01 15:59:22.566,,,,,,,,,,,,,,,,,,,,,,,,,,,,,,,,,,,,,,/muse/elements/blink
2024-12-01 15:59:22.770,1.931156212649091,1.448554360940292,0.7867721222608314,0.5595548357490249,1.736099255891819,1.167953063183934,0.4290778756116065,1.356762549119705,1.439068248514349,0.6053239076970667,0.4335864593163565,1.175937309207858,1.611306737197367,0.5573108503308057,0.2329445559727228,1.714105124069002,0.7274779223640468,0.2493507187170307,-0.00921607026730311,1.499611951370063,657.985347985348,789.7435897435897,797.8021978021978,882.8205128205128,16.11721611721612,-0.462891,0.173218,1.213135,-1.398163,2.557068,3.551483,1,2,1,1,2,65.000000
2024-12-01 15:59:22.941,,,,,,,,,,,,,,,,,,,,,,,,,,,,,,,,,,,,,,/muse/elements/blink
2024-12-01 15:59:23.180,,,,,,,,,,,,,,,,,,,,,,,,,,,,,,,,,,,,,,/muse/elements/blink
2024-12-01 15:59:23.265,1.931156212649091,1.462920532818212,1.045156413672689,0.5595548357490249,1.736099255891819,1.106548540877256,0.5540263712816672,1.356762549119705,1.439068248514349,0.6053239076970667,0.5298687035194319,1.175937309207858,1.611306737197367,0.574716286808169,0.2460081147291876,1.714105124069002,0.7274779223640468,0.269484953824663,0.05601402945788377,1.499611951370063,783.2967032967033,804.2490842490843,801.8315018315019,838.4981684981685,1225.714285714286,-0.404663,0.081177,0.916809,7.372131,2.549591,-11.813354,1,2,1,1,2,65.000000
2024-12-01 15:59:23.553,,,,,,,,,,,,,,,,,,,,,,,,,,,,,,,,,,,,,,/muse/elements/blink
2024-12-01 15:59:23.772,1.931156212649091,1.462920532818212,1.047401847144558,0.5595548357490249,1.736099255891819,1.106548540877256,0.4938701368977643,1.356762549119705,1.439068248514349,0.6053239076970667,0.5055861786616737,1.175937309207858,1.611306737197367,0.574716286808169,0.2756445825196335,1.714105124069002,0.7274779223640468,0.269484953824663,0.07964088038627644,1.499611951370063,847.3626373626374,827.2161172161173,803.040293040293,834.8717948717949,0,-0.375916,0.219543,0.772461,0.082245,-4.426270,0.254211,1,2,1,1,2,65.000000
2024-12-01 15:59:23.972,,,,,,,,,,,,,,,,,,,,,,,,,,,,,,,,,,,,,,/muse/elements/blink
2024-12-01 15:59:24.142,,,,,,,,,,,,,,,,,,,,,,,,,,,,,,,,,,,,,,/muse/elements/blink
2024-12-01 15:59:24.271,1.931156212649091,1.462920532818212,1.068252362460111,0.5595548357490249,1.736099255891819,1.106548540877256,0.4390641469380292,1.356762549119705,1.439068248514349,0.6053239076970667,0.5032108947784507,1.175937309207858,1.611306737197367,0.574716286808169,0.2611201339544414,1.714105124069002,0.7274779223640468,0.269484953824663,-0.007754172825194507,1.499611951370063,716.4102564102565,792.1611721611722,795.7875457875458,726.8864468864469,1191.868131868132,-0.371399,0.082214,0.822388,3.035583,-0.800018,9.585266,1,2,1,1,2,65.000000
2024-12-01 15:59:24.561,,,,,,,,,,,,,,,,,,,,,,,,,,,,,,,,,,,,,,/muse/elements/blink
2024-12-01 15:59:24.765,1.931156212649091,1.462920532818212,1.026904269480904,0.5595548357490249,1.736099255891819,1.106548540877256,0.4729025644378372,1.356762549119705,1.439068248514349,0.6053239076970667,0.4215982905171651,1.175937309207858,1.611306737197367,0.574716286808169,0.3704591718421197,1.714105124069002,0.7274779223640468,0.269484953824663,0.2679330022837448,1.499611951370063,1041.172161172161,822.7838827838829,805.4578754578755,973.8827838827839,860.2564102564103,-0.327881,0.216187,0.991760,-4.269257,2.594452,-2.071075,1,2,1,1,2,65.000000
2024-12-01 15:59:24.771,,,,,,,,,,,,,,,,,,,,,,,,,,,,,,,,,,,,,,/muse/elements/blink
2024-12-01 15:59:25.190,,,,,,,,,,,,,,,,,,,,,,,,,,,,,,,,,,,,,,/muse/elements/blink
2024-12-01 15:59:25.268,1.931156212649091,1.462920532818212,1.257584218022337,0.5595548357490249,1.736099255891819,1.106548540877256,0.7602589177045916,1.356762549119705,1.439068248514349,0.6053239076970667,0.3506071109683702,1.175937309207858,1.611306737197367,0.574716286808169,0.4612056683625758,1.714105124069002,0.7274779223640468,0.269484953824663,0.4915838341893032,1.499611951370063,690.6227106227107,784.5054945054945,789.3406593406594,729.3040293040293,347.3260073260074,-0.417297,0.237366,0.980896,2.011261,-5.831909,1.697235,1,2,1,1,2,65.000000
2024-12-01 15:59:25.607,,,,,,,,,,,,,,,,,,,,,,,,,,,,,,,,,,,,,,/muse/elements/blink
2024-12-01 15:59:25.765,1.931156212649091,1.178289002883234,1.077173357870861,0.5595548357490249,1.736099255891819,1.046196058876808,0.5217459500420564,1.356762549119705,1.439068248514349,0.8349810755748313,0.3506071109683702,1.175937309207858,1.611306737197367,0.8140536575293655,0.2940444042611882,1.714105124069002,0.7274779223640468,0.428878789469237,0.2632508275287814,1.499611951370063,678.9377289377289,787.7289377289378,798.2051282051282,814.7252747252747,0,-0.396362,0.074463,0.801697,2.856140,-8.396454,-1.906586,1,2,1,1,2,65.000000
2024-12-01 15:59:25.893,,,,,,,,,,,,,,,,,,,,,,,,,,,,,,,,,,,,,,/muse/elements/blink
2024-12-01 15:59:26.225,,,,,,,,,,,,,,,,,,,,,,,,,,,,,,,,,,,,,,/muse/elements/blink
2024-12-01 15:59:26.265,1.931156212649091,1.252019208685216,1.13658630612022,0.5595548357490249,1.736099255891819,0.8852552944342773,0.7281344557930229,1.356762549119705,1.439068248514349,0.8957394746739724,0.5559804619880894,1.175937309207858,1.611306737197367,0.826707842935629,0.2042848931912874,1.714105124069002,0.7274779223640468,0.3367582305244933,-0.2581435359183121,1.499611951370063,687.3992673992674,823.992673992674,766.3736263736264,874.3589743589744,1434.432234432235,-0.287048,0.177185,0.855530,-7.536621,-5.360870,-13.293762,1,2,1,1,2,65.000000
2024-12-01 15:59:26.604,,,,,,,,,,,,,,,,,,,,,,,,,,,,,,,,,,,,,,/muse/elements/blink
2024-12-01 15:59:26.765,1.931156212649091,1.274244782016925,1.184601468512214,0.5595548357490249,1.736099255891819,0.8119453687737902,0.86795537465052,1.356762549119705,1.439068248514349,0.8630031648053296,0.6260866884262567,1.175937309207858,1.611306737197367,0.791713373705131,0.1944810161037224,1.714105124069002,0.7274779223640468,0.29610684412458,-0.2486703664704847,1.499611951370063,857.8388278388279,802.6373626373627,784.5054945054945,794.981684981685,0.4029304029304029,-0.317688,0.070251,1.025085,6.646881,-1.128998,-2.901001,1,2,1,1,2,65.000000
2024-12-01 15:59:26.930,,,,,,,,,,,,,,,,,,,,,,,,,,,,,,,,,,,,,,/muse/elements/blink
2024-12-01 15:59:27.265,1.931156212649091,1.384669147667922,1.297730693660483,0.5595548357490249,1.736099255891819,0.7282469932565049,0.9727081416561461,1.356762549119705,1.439068248514349,0.8172463880378111,0.6260866884262567,1.175937309207858,1.611306737197367,0.7150086469681631,0.1847214154989274,1.714105124069002,0.7274779223640468,0.3200599218036329,-0.234313360040088,1.499611951370063,829.2307692307693,815.5311355311355,790.1465201465202,823.1868131868132,1626.630036630037,-0.304077,0.052551,0.942932,7.297363,-6.437531,-11.282501,1,2,1,1,2,65.000000
2024-12-01 15:59:27.301,,,,,,,,,,,,,,,,,,,,,,,,,,,,,,,,,,,,,,/muse/elements/blink
2024-12-01 15:59:27.512,,,,,,,,,,,,,,,,,,,,,,,,,,,,,,,,,,,,,,/muse/elements/blink
2024-12-01 15:59:27.765,1.931156212649091,1.377178488497957,1.144864924072897,0.5595548357490249,1.736099255891819,0.7816452794639129,0.8306445840628872,1.356762549119705,1.439068248514349,0.6553096066700022,0.5777073534895221,1.175937309207858,1.611306737197367,0.4778129354577286,0.1104944897845798,1.714105124069002,0.7274779223640468,0.3692202697070579,-0.1944415041314794,1.499611951370063,679.7435897435897,782.0879120879121,834.0659340659341,664.8351648351648,518.5714285714286,-0.264404,0.176697,0.876648,1.951447,3.342133,1.891632,1,2,1,1,2,65.000000
2024-12-01 15:59:27.909,,,,,,,,,,,,,,,,,,,,,,,,,,,,,,,,,,,,,,/muse/elements/blink
2024-12-01 15:59:28.265,1.931156212649091,1.35995313360699,1.083399954640559,0.5595548357490249,1.736099255891819,0.810426271505855,0.6776763993056395,1.356762549119705,1.439068248514349,0.6572570152585464,0.5151656855252265,1.175937309207858,1.611306737197367,0.5349243741611432,0.09318463491000581,1.714105124069002,0.7274779223640468,0.347401999802931,-0.1866612363645171,1.499611951370063,1075.824175824176,799.4139194139194,798.6080586080586,952.1245421245421,1117.728937728938,-0.218445,0.101746,0.908752,5.286102,-2.497253,0.089722,1,2,1,1,2,65.000000
2024-12-01 15:59:28.655,,,,,,,,,,,,,,,,,,,,,,,,,,,,,,,,,,,,,,/muse/elements/blink
2024-12-01 15:59:28.765,1.931156212649091,1.317099500503992,0.6726173685726378,0.5595548357490249,1.736099255891819,0.7502820148845961,0.322185561444288,1.356762549119705,1.439068248514349,0.6051953120486597,0.05183645270942442,1.175937309207858,1.611306737197367,0.5095387651082054,0.1525277988109418,1.714105124069002,0.7274779223640468,0.251131205679997,-0.1630176878226811,1.499611951370063,751.8681318681319,811.9047619047619,771.6117216117216,804.2490842490843,621.3186813186813,-0.229492,0.042175,0.922546,7.947845,-6.437531,-20.957489,1,2,1,1,2,65.000000
2024-12-01 15:59:28.883,,,,,,,,,,,,,,,,,,,,,,,,,,,,,,,,,,,,,,/muse/elements/blink
2024-12-01 15:59:29.118,,,,,,,,,,,,,,,,,,,,,,,,,,,,,,,,,,,,,,/muse/elements/blink
2024-12-01 15:59:29.265,1.931156212649091,1.321136076214781,0.6652035177330505,0.5595548357490249,1.736099255891819,0.7819481268475906,0.3045160372051779,1.356762549119705,1.439068248514349,0.4562745844450485,0.05183645270942442,1.175937309207858,1.611306737197367,0.6088257338728845,0.1399494879663722,1.714105124069002,0.7274779223640468,0.09223615930937082,-0.1646245663365515,1.499611951370063,754.2857142857143,806.2637362637363,812.3076923076924,812.7106227106227,1626.630036630037,-0.266418,0.169250,0.931396,2.781372,-9.091797,-4.426270,1,2,1,1,2,65.000000
2024-12-01 15:59:29.644,,,,,,,,,,,,,,,,,,,,,,,,,,,,,,,,,,,,,,/muse/elements/blink
2024-12-01 15:59:29.773,1.931156212649091,1.130952271341286,1.159432305628571,0.5595548357490249,1.736099255891819,0.8583330443763824,1.043385764992669,1.356762549119705,1.439068248514349,0.5875116954694652,0.892569835981976,1.175937309207858,1.611306737197367,0.6859880001673451,0.2726219439243464,1.714105124069002,0.7274779223640468,0.3955334453622152,0.1753275626307789,1.499611951370063,902.5641025641025,801.8315018315019,803.8461538461539,970.2564102564103,24.57875457875458,-0.294739,0.118408,1.029297,-3.394470,-0.575714,7.992706,1,2,1,1,2,65.000000
2024-12-01 15:59:29.877,,,,,,,,,,,,,,,,,,,,,,,,,,,,,,,,,,,,,,/muse/elements/blink
2024-12-01 15:59:30.255,,,,,,,,,,,,,,,,,,,,,,,,,,,,,,,,,,,,,,/muse/elements/blink
2024-12-01 15:59:30.270,1.931156212649091,1.17744591975581,1.159432305628571,0.5595548357490249,1.736099255891819,0.77027381857081,1.043385764992669,1.356762549119705,1.439068248514349,0.5945364006296694,0.892569835981976,1.175937309207858,1.611306737197367,0.580688043484,0.2726219439243464,1.714105124069002,0.7274779223640468,0.2946858891015867,0.1753275626307789,1.499611951370063,674.5054945054945,789.3406593406594,795.3846153846154,645.4945054945055,0,-0.233948,0.026062,1.064026,3.244934,-12.815247,-10.295563,1,2,1,1,2,65.000000
2024-12-01 15:59:30.469,,,,,,,,,,,,,,,,,,,,,,,,,,,,,,,,,,,,,,/muse/elements/blink
2024-12-01 15:59:30.765,1.931156212649091,1.17744591975581,1.101398701867194,0.5595548357490249,1.736099255891819,0.77027381857081,1.042864200952669,1.356762549119705,1.439068248514349,0.5945364006296694,0.8626400553908541,1.175937309207858,1.611306737197367,0.580688043484,0.2659595427960946,1.714105124069002,0.7274779223640468,0.2946858891015867,0.1166909785083664,1.499611951370063,944.8717948717949,811.5018315018315,795.3846153846154,850.989010989011,1626.630036630037,-0.282837,0.150391,1.012573,7.745972,-18.721924,-2.714081,1,2,1,1,2,65.000000
2024-12-01 15:59:31.093,,,,,,,,,,,,,,,,,,,,,,,,,,,,,,,,,,,,,,/muse/elements/blink
2024-12-01 15:59:31.265,1.931156212649091,1.169083526240188,1.101398701867194,0.5595548357490249,1.736099255891819,0.5647656886263589,1.042864200952669,1.356762549119705,1.439068248514349,0.2947881359304263,0.8626400553908541,1.175937309207858,1.611306737197367,0.4224008650779625,0.2659595427960946,1.714105124069002,0.7274779223640468,0.132315326320494,0.1166909785083664,1.499611951370063,853.8095238095239,832.8571428571429,725.2747252747253,672.893772893773,590.6959706959707,-0.324524,0.089966,0.964172,1.226196,5.622559,11.312408,1,2,1,1,2,65.000000
2024-12-01 15:59:31.765,1.931156212649091,1.169083526240188,1.101398701867194,0.5595548357490249,1.736099255891819,0.5647656886263589,1.042864200952669,1.356762549119705,1.439068248514349,0.2947881359304263,0.8626400553908541,1.175937309207858,1.611306737197367,0.4224008650779625,0.2659595427960946,1.714105124069002,0.7274779223640468,0.132315326320494,0.1166909785083664,1.499611951370063,806.2637362637363,799.0109890109891,795.3846153846154,763.5531135531136,921.9047619047619,-0.270203,0.057373,0.979126,1.577606,-2.654266,7.828217,1,2,1,1,2,65.000000
