TimeStamp,Delta_TP9,Delta_AF7,Delta_AF8,Delta_TP10,Theta_TP9,Theta_AF7,Theta_AF8,Theta_TP10,Alpha_TP9,Alpha_AF7,Alpha_AF8,Alpha_TP10,Beta_TP9,Beta_AF7,Beta_AF8,Beta_TP10,Gamma_TP9,Gamma_AF7,Gamma_AF8,Gamma_TP10,RAW_TP9,RAW_AF7,RAW_AF8,RAW_TP10,AUX_RIGHT,Accelerometer_X,Accelerometer_Y,Accelerometer_Z,Gyro_X,Gyro_Y,Gyro_Z,HeadBandOn,HSI_TP9,HSI_AF7,HSI_AF8,HSI_TP10,Battery,Elements
2024-12-17 13:47:58.544,,,,,,,,,,,,,,,,,,,,,,,,,,,,,,,,,,,,,,/muse/event/connected Muse-D2D3
2024-12-17 13:47:58.648,,,,,,,,,,,,,,,,,,,,,,,,,,,,,,,,,,,,,,/muse/elements/blink
2024-12-17 13:47:59.058,1.482297505335393,0.4982722484289966,0.622754334478218,1.254891942230042,1.212304501967334,0.2697921771168335,0.5049483261164027,0.9553190406190285,0.7304151495789103,0.5959943931937713,0.3795583803491986,0.5269054950182486,0.9230783844361107,0.6106802981420267,0.2216974171798751,0.6103611732266373,0.4971713265748229,0.479685922981228,-0.0652329084482796,0.741724443549062,798.2051282051282,807.0695970695971,809.4871794871796,803.8461538461539,598.7545787545788,-0.255371,0.102783,0.988159,2.407532,-0.052338,1.629944,1,2,1,1,2,50.000000
2024-12-17 13:47:59.545,0.4058551256915867,0.5522261027926576,0.6717505705006414,0.6154347215438248,0.6783335698791183,0.2535025298527632,0.4585654189295227,0.7407537114696749,0.7433180475549549,0.5873389215626941,0.3760805358272394,0.6963270539649123,0.7521248552398344,0.5439765828813763,0.1680634217078515,0.7399702686120451,0.6604184325610539,0.3991598565142866,-0.1252600024309844,0.5461827994415237,805.0549450549451,812.3076923076924,801.4285714285714,799.4139194139194,770.8058608058608,-0.252380,0.084900,0.973694,3.887939,-3.805695,8.770294,1,1,1,1,1,50.000000
2024-12-17 13:48:00.044,0.6407373512029844,0.5318163787699512,0.4764036507158112,0.7757329474505303,0.6917672774855483,0.230935012620638,0.05654364350945077,0.6894315272533571,0.7499866153554202,0.5571577422059174,0.3514695469276307,0.8354742957069711,0.751050866628562,0.4786553420763331,0.1572075470667338,0.8766451473906691,0.7519478706440894,0.279611804038275,-0.2151320088848207,0.5735494466568439,813.5164835164835,798.2051282051282,808.6813186813187,807.0695970695971,694.2490842490843,-0.256836,0.078796,0.967957,3.155212,5.712280,-4.059906,1,1,1,1,1,50.000000
2024-12-17 13:48:00.544,,,,,,,,,,,,,,,,,,,,,,,,,,,,,,,,,,,,,,/muse/elements/blink
2024-12-17 13:48:00.557,0.8591160758823827,0.2079531043958041,0.3640884920109846,0.8741137025409315,0.7699357538561049,0.2661708071411659,-0.002051404932076882,0.7086150423966241,0.7501749604289313,0.4453303125578595,0.04058019960635892,0.7637673090213557,0.8116251891704063,0.4695229369391931,0.1292082583950286,0.8576789011160412,0.7927062110894364,0.2467644029836327,-0.1884557038343072,0.5985419331776667,829.2307692307693,801.4285714285714,791.3553113553114,833.2600732600733,718.4249084249085,-0.252563,0.152039,0.994141,2.280426,-1.315918,3.947754,1,1,1,1,1,50.000000
2024-12-17 13:48:01.045,0.9594837762197589,0.05542298128156277,0.2681550192544241,0.947581233891862,0.8058789836434787,0.2652043313584003,0.2593612188301647,0.6613554021763529,0.6466732878728769,0.4207770113277322,0.2629910555427004,0.7637673090213557,0.8668239080620088,0.4762146270171111,0.1445745798729104,0.8960842359719412,0.8469180141338014,0.307815001941356,-0.1863926528453878,0.6559350796991522,678.9377289377289,810.2930402930403,815.934065934066,704.3223443223443,680.952380952381,-0.232666,0.065369,0.989136,4.112244,0.067291,4.815063,1,1,1,1,1,50.000000
2024-12-17 13:48:01.347,,,,,,,,,,,,,,,,,,,,,,,,,,,,,,,,,,,,,,/muse/elements/blink
2024-12-17 13:48:01.545,1.089560881338762,-0.04490201213519437,0.365831948430374,0.9666416101862589,0.9040736897096127,0.2207996541262712,0.3695981174143423,0.7223177304503836,0.644415265714864,0.5354001247441951,0.357581850250316,0.6753653387933919,0.9792106744126851,0.5354338140518966,0.1851255868940397,0.6763336236423469,0.8540126245625482,0.3733831321512801,-0.1744133236284828,0.7080845892146341,794.981684981685,814.7252747252747,798.6080586080586,799.8168498168499,1046.813186813187,-0.248291,0.039307,0.938110,0.157013,4.717865,0.216827,1,1,1,1,1,50.000000
2024-12-17 13:48:02.045,1.089560881338762,0.06768327841672475,0.5515391080806454,0.9666416101862589,0.9040736897096127,0.1043470834298101,0.4340364531179614,0.7223177304503836,0.644415265714864,0.632465225522294,0.46404767533245,0.6753653387933919,0.9792106744126851,0.6335429848322788,0.2517360101056141,0.6763336236423469,0.8540126245625482,0.4003136214674319,-0.005255234865225615,0.7080845892146341,805.4578754578755,786.5201465201466,796.996336996337,796.1904761904763,919.4871794871796,-0.168884,0.126404,0.948914,2.512207,-5.061798,1.570129,1,1,1,1,1,50.000000
2024-12-17 13:48:02.346,,,,,,,,,,,,,,,,,,,,,,,,,,,,,,,,,,,,,,/muse/elements/blink
2024-12-17 13:48:02.545,1.089560881338762,-0.02960760277829232,0.5797785590016021,0.9666416101862589,0.9040736897096127,-0.05817554579554986,0.295407250814583,0.7223177304503836,0.644415265714864,0.5275427581704498,0.5214165196780756,0.6753653387933919,0.9792106744126851,0.7562722971178334,0.2531668656058894,0.6763336236423469,0.8540126245625482,0.5041247876192334,0.1731553275160127,0.7080845892146341,804.6520146520147,781.2820512820513,808.6813186813187,815.1282051282052,508.0952380952381,-0.268311,0.066589,0.980713,3.596344,-1.659851,1.891632,1,1,1,1,1,50.000000
2024-12-17 13:48:02.875,,,,,,,,,,,,,,,,,,,,,,,,,,,,,,,,,,,,,,/muse/elements/blink
2024-12-17 13:48:03.054,1.089560881338762,0.09509726023269581,0.7599114290075949,0.9666416101862589,0.9040736897096127,-0.2446758556580896,0.3154393572655251,0.7223177304503836,0.644415265714864,0.5229256636503266,0.7215671765712477,0.6753653387933919,0.9792106744126851,0.8854767430027637,0.2499007165477403,0.6763336236423469,0.8540126245625482,0.582005961237444,0.295380156479039,0.7080845892146341,823.992673992674,801.8315018315019,812.7106227106227,806.6666666666667,966.2271062271062,-0.252930,0.054016,0.975891,3.626251,-0.964508,-1.286011,1,1,1,1,1,50.000000
2024-12-17 13:48:03.548,1.089560881338762,-0.1565614131593828,0.9108679830178108,0.9666416101862589,0.9040736897096127,-0.4687424723172828,0.633450584545284,0.7223177304503836,0.644415265714864,0.3593191931103592,0.7228567622726403,0.6753653387933919,0.9792106744126851,0.8928617104738127,0.1747785597076431,0.6763336236423469,0.8540126245625482,0.6407161686857754,0.2243434118633002,0.7080845892146341,818.3516483516484,794.5787545787546,813.1135531135532,804.2490842490843,1082.271062271062,-0.268860,0.064758,0.980469,1.727142,-2.990723,-2.706604,1,2,1,1,2,50.000000
2024-12-17 13:48:04.045,1.089560881338762,0.06585112478797706,0.8838052851537151,0.9666416101862589,0.9040736897096127,0.05424094030512801,0.5979030520405046,0.7223177304503836,0.644415265714864,0.4037871569799647,0.7237162238115635,0.6753653387933919,0.9792106744126851,0.6599518646844985,0.3243896038007481,0.6763336236423469,0.8540126245625482,0.6305183998051338,0.1347113022580421,0.7080845892146341,968.6446886446887,794.1758241758242,784.9084249084249,745.4212454212454,558.4615384615385,-0.247070,0.075623,0.990784,4.321594,-3.192596,3.499146,1,2,1,1,2,50.000000
2024-12-17 13:48:04.423,,,,,,,,,,,,,,,,,,,,,,,,,,,,,,,,,,,,,,/muse/elements/blink
2024-12-17 13:48:04.544,1.089560881338762,0.1483863810851314,0.6994762693754123,0.9666416101862589,0.9040736897096127,0.1786185680927853,0.4535074388242419,0.7223177304503836,0.644415265714864,0.4625925440271046,0.4687706898765894,0.6753653387933919,0.9792106744126851,0.5434350724291604,0.305879930980087,0.6763336236423469,0.8540126245625482,0.5283718562261398,0.1499012295529462,0.7080845892146341,792.1611721611722,803.8461538461539,799.4139194139194,813.919413919414,733.3333333333334,-0.229187,0.079224,0.988953,1.936493,-5.173950,-0.186920,1,2,1,1,2,50.000000
2024-12-17 13:48:05.052,1.089560881338762,0.3057654257560221,0.4581339470064836,0.9666416101862589,0.9040736897096127,0.1997740138154096,-0.07784990674932218,0.7223177304503836,0.644415265714864,0.4637325335410799,0.1791005851480518,0.6753653387933919,0.9792106744126851,0.5487372357492953,0.2772971720215229,0.6763336236423469,0.8540126245625482,0.5031547476898649,0.09568254424142739,0.7080845892146341,823.1868131868132,811.5018315018315,807.0695970695971,828.8278388278388,800.2197802197802,-0.243652,0.046448,0.871948,6.183319,2.512207,-0.732727,1,2,1,1,2,50.000000
2024-12-17 13:48:05.545,1.089560881338762,0.3241984307974217,0.4230831414013117,0.9666416101862589,0.9040736897096127,0.1950989067499583,-0.09014800760774241,0.7223177304503836,0.644415265714864,0.2522511159675648,0.1769902173896707,0.6753653387933919,0.9792106744126851,0.4776401078652897,0.2040191105274466,0.6763336236423469,0.8540126245625482,0.430618139452701,0.04687040454061214,0.7080845892146341,812.3076923076924,806.2637362637363,793.7728937728938,812.7106227106227,712.3809523809524,-0.393311,0.036377,0.972168,1.405640,0.785065,-3.297272,1,2,1,1,2,50.000000
2024-12-17 13:48:06.055,1.089560881338762,0.3117249133312796,0.3662768984213194,0.9666416101862589,0.9040736897096127,0.08658051481992157,0.04179737411034078,0.7223177304503836,0.644415265714864,0.1357100350853737,0.2230982990264144,0.6753653387933919,0.9792106744126851,0.4568368421459779,0.0742137422128907,0.6763336236423469,0.8540126245625482,0.4063980222707575,-0.05139898037146391,0.7080845892146341,820.3663003663004,796.5934065934066,789.3406593406594,805.0549450549451,791.3553113553114,-0.238342,0.056763,0.760437,-1.345825,4.112244,-10.826416,1,2,1,1,2,50.000000
2024-12-17 13:48:06.159,,,,,,,,,,,,,,,,,,,,,,,,,,,,,,,,,,,,,,/muse/elements/blink
2024-12-17 13:48:06.545,1.089560881338762,0.1895500098557104,0.150066009724212,0.9666416101862589,0.9040736897096127,0.1659448466027567,0.04818719856856363,0.7223177304503836,0.644415265714864,0.1850148304214563,0.2764138518694588,0.6753653387933919,0.9792106744126851,0.4282664186941227,0.07540730640722838,0.6763336236423469,0.8540126245625482,0.3984012556525174,-0.0146882765190297,0.7080845892146341,923.5164835164835,786.1172161172161,803.4432234432235,821.5750915750916,679.3406593406594,-0.228149,-0.026611,0.810547,4.770203,-10.721741,13.585358,1,2,1,1,2,50.000000
2024-12-17 13:48:06.628,,,,,,,,,,,,,,,,,,,,,,,,,,,,,,,,,,,,,,/muse/elements/jaw_clench
2024-12-17 13:48:07.045,1.089560881338762,0.2068542816978309,0.1784161241763454,0.9666416101862589,0.9040736897096127,0.2075932764130986,0.1601248655805836,0.7223177304503836,0.644415265714864,0.1762366159668866,0.2675938636270311,0.6753653387933919,0.9792106744126851,0.4300624758931463,0.03138961729323229,0.6763336236423469,0.8540126245625482,0.3973765433163199,0.03643349148736771,0.7080845892146341,789.3406593406594,809.8901098901099,804.2490842490843,791.7582417582418,784.1025641025641,-0.257812,0.178223,0.917480,5.031891,-10.676880,-3.843079,1,2,1,1,2,55.000000
2024-12-17 13:48:07.545,1.089560881338762,0.1966582454030834,0.4076778534715223,0.9666416101862589,0.9040736897096127,0.422111420690633,0.2344817276562001,0.7223177304503836,0.644415265714864,0.1500875691512607,0.2625767125612218,0.6753653387933919,0.9792106744126851,0.4988225935022711,0.06760316923618236,0.6763336236423469,0.8540126245625482,0.4098333647983192,0.1499115653755798,0.7080845892146341,924.3223443223443,821.978021978022,805.0549450549451,825.2014652014652,893.2967032967033,-0.383240,0.017090,1.098450,-4.508514,0.904694,0.074768,1,2,1,1,2,55.000000
2024-12-17 13:48:08.047,1.089560881338762,0.1966582454030834,0.5596088827911569,0.9666416101862589,0.9040736897096127,0.422111420690633,0.2048077052364309,0.7223177304503836,0.644415265714864,0.1500875691512607,-0.01191402324515656,0.6753653387933919,0.9792106744126851,0.4988225935022711,0.2609039679123715,0.6763336236423469,0.8540126245625482,0.4098333647983192,0.2909914382729719,0.7080845892146341,795.7875457875458,848.1684981684982,796.1904761904763,774.0293040293041,671.6849816849817,-0.337402,0.162964,1.093628,4.553375,1.308441,-4.493561,1,2,1,1,2,55.000000
2024-12-17 13:48:08.177,,,,,,,,,,,,,,,,,,,,,,,,,,,,,,,,,,,,,,/muse/elements/blink
2024-12-17 13:48:08.545,1.089560881338762,0.1966582454030834,0.5983927566769353,0.9666416101862589,0.9040736897096127,0.422111420690633,0.3487388294882343,0.7223177304503836,0.644415265714864,0.1500875691512607,0.05762387823564489,0.6753653387933919,0.9792106744126851,0.4988225935022711,0.3007711650089709,0.6763336236423469,0.8540126245625482,0.4098333647983192,0.384276439744166,0.7080845892146341,848.974358974359,831.2454212454213,782.4908424908425,792.967032967033,678.9377289377289,-0.538025,0.119751,1.485291,1.525269,5.689850,3.708496,1,2,1,1,2,55.000000
2024-12-17 13:48:09.046,1.089560881338762,0.1966582454030834,0.5614990219078493,0.9666416101862589,0.9040736897096127,0.422111420690633,0.3666139314007468,0.7223177304503836,0.644415265714864,0.1500875691512607,0.2692903177622528,0.6753653387933919,0.9792106744126851,0.4988225935022711,0.24773547710791,0.6763336236423469,0.8540126245625482,0.4098333647983192,0.3395725575666131,0.7080845892146341,804.6520146520147,798.2051282051282,803.040293040293,793.3699633699634,699.0842490842491,-0.432556,0.057190,1.176392,2.100983,5.936584,-6.691742,1,2,1,1,2,55.000000
2024-12-17 13:48:09.545,1.089560881338762,0.7829680366154359,0.4033705909008509,0.9666416101862589,0.9040736897096127,0.3660391097776534,0.331415181170517,0.7223177304503836,0.644415265714864,0.7605355564241552,0.3457106677403469,0.6753653387933919,0.9792106744126851,0.7247945915501617,0.3758536884320383,0.6763336236423469,0.8540126245625482,0.7706882266503914,0.3261136280021451,0.7080845892146341,836.4835164835165,785.7142857142858,790.952380952381,860.6593406593407,636.2271062271062,-0.234375,0.110535,0.814514,0.590668,0.635529,-1.876678,1,2,1,1,2,55.000000
2024-12-17 13:48:09.575,,,,,,,,,,,,,,,,,,,,,,,,,,,,,,,,,,,,,,/muse/elements/blink
2024-12-17 13:48:10.045,1.089560881338762,0.7417758412884781,0.4192395448432808,0.9666416101862589,0.9040736897096127,0.4099776343784065,0.288884230025061,0.7223177304503836,0.644415265714864,0.8283005268954595,0.3568378484376885,0.6753653387933919,0.9792106744126851,0.6888408079958586,0.454687190380694,0.6763336236423469,0.8540126245625482,0.6727558096131246,0.2354786143462808,0.7080845892146341,740.5860805860806,782.0879120879121,801.8315018315019,786.9230769230769,705.5311355311355,-0.121948,0.105591,0.790894,6.011353,-8.217010,-15.791016,1,2,1,1,2,55.000000
2024-12-17 13:48:10.179,,,,,,,,,,,,,,,,,,,,,,,,,,,,,,,,,,,,,,/muse/elements/blink
2024-12-17 13:48:10.544,1.089560881338762,0.7867576646240486,0.511893088020457,0.9666416101862589,0.9040736897096127,0.4413301994499509,0.3007846845825733,0.7223177304503836,0.644415265714864,0.8720742643529321,0.459360542908208,0.6753653387933919,0.9792106744126851,0.7081635692616522,0.4901608393659944,0.6763336236423469,0.8540126245625482,0.6661971406609785,0.160345878041925,0.7080845892146341,797.3992673992674,796.1904761904763,808.2783882783883,812.3076923076924,718.4249084249085,-0.202148,0.062439,0.834045,-2.586975,-6.130981,-4.972076,1,2,1,1,2,55.000000
2024-12-17 13:48:10.626,,,,,,,,,,,,,,,,,,,,,,,,,,,,,,,,,,,,,,/muse/elements/blink
2024-12-17 13:48:11.053,1.089560881338762,0.7892658359414821,0.548426450351125,0.9666416101862589,0.9040736897096127,0.4851294661513283,0.270070851581833,0.7223177304503836,0.644415265714864,0.8032519080626329,0.4699581678986245,0.6753653387933919,0.9792106744126851,0.6967115208452456,0.3897102541209755,0.6763336236423469,0.8540126245625482,0.5793001312799356,0.0663238371899208,0.7080845892146341,814.7252747252747,786.1172161172161,788.9377289377289,838.4981684981685,637.8388278388279,-0.191650,-0.109314,0.850952,0.007477,-10.452576,23.200531,1,2,1,1,2,55.000000
2024-12-17 13:48:11.546,1.089560881338762,0.8411844544964392,0.6539502590460179,0.9666416101862589,0.9040736897096127,0.5466667144641291,0.7277241147495941,0.7223177304503836,0.644415265714864,0.7899761195853603,0.7270861705954218,0.6753653387933919,0.9792106744126851,0.7228120528335745,0.2754278166256547,0.6763336236423469,0.8540126245625482,0.5347035026624201,-0.05175149821688083,0.7080845892146341,791.7582417582418,814.3223443223443,806.6666666666667,742.6007326007326,944.8717948717949,-0.228149,0.156494,0.895813,9.585266,-7.409515,-19.245300,1,2,1,1,2,55.000000
2024-12-17 13:48:11.746,,,,,,,,,,,,,,,,,,,,,,,,,,,,,,,,,,,,,,/muse/elements/blink
2024-12-17 13:48:12.045,1.089560881338762,0.8411844544964392,0.6869378929257812,0.9666416101862589,0.9040736897096127,0.5466667144641291,0.824009400464357,0.7223177304503836,0.644415265714864,0.7899761195853603,0.8372047397353768,0.6753653387933919,0.9792106744126851,0.7228120528335745,0.3221188764472476,0.6763336236423469,0.8540126245625482,0.5347035026624201,-0.03672231091116079,0.7080845892146341,860.6593406593407,811.9047619047619,803.8461538461539,807.4725274725275,856.2271062271062,-0.407776,0.013123,1.098145,-1.532745,9.413300,-6.400146,1,2,1,1,2,55.000000
2024-12-17 13:48:12.444,,,,,,,,,,,,,,,,,,,,,,,,,,,,,,,,,,,,,,/muse/elements/blink
2024-12-17 13:48:12.552,1.089560881338762,0.8411844544964392,0.7347623806438887,0.9666416101862589,0.9040736897096127,0.5466667144641291,0.8634819810055421,0.7223177304503836,0.644415265714864,0.7899761195853603,0.8372047397353768,0.6753653387933919,0.9792106744126851,0.7228120528335745,0.3805980402094475,0.6763336236423469,0.8540126245625482,0.5347035026624201,0.02062749834610961,0.7080845892146341,790.952380952381,792.967032967033,794.981684981685,838.4981684981685,1075.421245421245,-0.202393,0.161560,0.990967,-6.744080,-3.424377,-8.366547,1,2,1,1,2,55.000000
2024-12-17 13:48:13.045,1.089560881338762,0.8411844544964392,0.7406011642218698,0.9666416101862589,0.9040736897096127,0.5466667144641291,0.6997376023731759,0.7223177304503836,0.644415265714864,0.7899761195853603,0.8111257364076474,0.6753653387933919,0.9792106744126851,0.7228120528335745,0.472498250865808,0.6763336236423469,0.8540126245625482,0.5347035026624201,0.1184846476294042,0.7080845892146341,879.1941391941392,799.4139194139194,797.3992673992674,822.7838827838829,757.9120879120879,-0.313599,0.113831,1.058533,3.476715,15.372314,2.220612,1,2,1,1,2,55.000000
2024-12-17 13:48:13.545,1.089560881338762,0.8411844544964392,0.6150679002456593,0.9666416101862589,0.9040736897096127,0.5466667144641291,0.4095207222786509,0.7223177304503836,0.644415265714864,0.7899761195853603,0.7270535735616318,0.6753653387933919,0.9792106744126851,0.7228120528335745,0.481712152885946,0.6763336236423469,0.8540126245625482,0.5347035026624201,0.2906807845014355,0.7080845892146341,758.7179487179487,877.985347985348,765.1648351648352,776.0439560439561,655.9706959706959,-0.393372,0.079651,0.987305,0.605621,4.306641,13.091888,1,2,1,1,2,55.000000
2024-12-17 13:48:13.945,,,,,,,,,,,,,,,,,,,,,,,,,,,,,,,,,,,,,,/muse/elements/blink
2024-12-17 13:48:14.044,1.089560881338762,0.8411844544964392,0.6753595492836267,0.9666416101862589,0.9040736897096127,0.5466667144641291,0.3598616897751749,0.7223177304503836,0.644415265714864,0.7899761195853603,0.4004207601483659,0.6753653387933919,0.9792106744126851,0.7228120528335745,0.4884690831377354,0.6763336236423469,0.8540126245625482,0.5347035026624201,0.3521274132212783,0.7080845892146341,929.5604395604396,789.7435897435897,795.7875457875458,825.6043956043957,644.2857142857143,-0.278320,0.102966,0.824463,3.910370,-5.824432,-18.265839,1,2,1,1,2,55.000000
2024-12-17 13:48:14.544,1.089560881338762,0.8411844544964392,0.4906725304086448,0.9666416101862589,0.9040736897096127,0.5466667144641291,0.08150438013360575,0.7223177304503836,0.644415265714864,0.7899761195853603,0.1074457068997586,0.6753653387933919,0.9792106744126851,0.7228120528335745,0.396391911263521,0.6763336236423469,0.8540126245625482,0.5347035026624201,0.4369365026414181,0.7080845892146341,817.948717948718,796.1904761904763,793.7728937728938,827.6190476190476,716.8131868131868,-0.245728,0.061096,0.685913,15.290070,-20.994873,13.944244,1,2,1,1,2,55.000000
2024-12-17 13:48:14.576,,,,,,,,,,,,,,,,,,,,,,,,,,,,,,,,,,,,,,/muse/elements/blink
2024-12-17 13:48:15.056,1.089560881338762,0.8411844544964392,0.4452152360189907,0.9666416101862589,0.9040736897096127,0.5466667144641291,0.1025697328502884,0.7223177304503836,0.644415265714864,0.7899761195853603,-0.008896987001388697,0.6753653387933919,0.9792106744126851,0.7228120528335745,0.3513087710624905,0.6763336236423469,0.8540126245625482,0.5347035026624201,0.4162524579049229,0.7080845892146341,729.7069597069598,800.2197802197802,799.0109890109891,753.0769230769231,801.8315018315019,-0.182678,0.024719,0.733459,-3.693542,12.254486,-14.086304,1,2,1,1,2,55.000000
2024-12-17 13:48:15.390,,,,,,,,,,,,,,,,,,,,,,,,,,,,,,,,,,,,,,/muse/elements/blink
2024-12-17 13:48:15.546,1.089560881338762,1.058220331853525,1.023173246159087,0.9666416101862589,0.9040736897096127,0.4288337802367565,0.7866193608927623,0.7223177304503836,0.644415265714864,0.7406214168609861,0.6684927454109079,0.6753653387933919,0.9792106744126851,1.134627812321817,0.4654749820540201,0.6763336236423469,0.8540126245625482,0.7035003559385837,-0.063293004794862,0.7080845892146341,801.025641025641,808.2783882783883,797.8021978021978,804.2490842490843,580.2197802197802,-0.256470,-0.014038,0.806091,4.276733,-10.901184,1.607513,1,2,1,1,2,55.000000
2024-12-17 13:48:16.050,1.089560881338762,1.058220331853525,0.9512900901518342,0.9666416101862589,0.9040736897096127,0.4288337802367565,0.7619793719752712,0.7223177304503836,0.644415265714864,0.7406214168609861,0.6823696504581995,0.6753653387933919,0.9792106744126851,1.134627812321817,0.5412271749078729,0.6763336236423469,0.8540126245625482,0.7035003559385837,-0.01360392173913452,0.7080845892146341,797.3992673992674,794.981684981685,805.0549450549451,856.2271062271062,594.7252747252747,-0.305481,0.168152,0.935852,8.015137,-7.073059,-4.336548,1,2,1,1,2,55.000000
2024-12-17 13:48:16.544,1.089560881338762,1.058220331853525,0.8726397159014614,0.9666416101862589,0.9040736897096127,0.4288337802367565,0.6861122640871233,0.7223177304503836,0.644415265714864,0.7406214168609861,0.6823696504581995,0.6753653387933919,0.9792106744126851,1.134627812321817,0.4918212423044067,0.6763336236423469,0.8540126245625482,0.7035003559385837,0.006300476480734007,0.7080845892146341,782.893772893773,800.6227106227107,800.6227106227107,806.2637362637363,701.9047619047619,-0.325439,0.102905,0.904724,2.706604,7.611389,-1.271057,1,2,1,1,2,55.000000
2024-12-17 13:48:17.051,1.089560881338762,1.058220331853525,0.6544037891926466,0.9666416101862589,0.9040736897096127,0.4288337802367565,0.5106526018975602,0.7223177304503836,0.644415265714864,0.7406214168609861,0.6341437038002817,0.6753653387933919,0.9792106744126851,1.134627812321817,0.4919731026637285,0.6763336236423469,0.8540126245625482,0.7035003559385837,0.08288941435220654,0.7080845892146341,840.1098901098901,790.5494505494506,793.3699633699634,843.3333333333334,1202.747252747253,-0.395386,0.072815,1.077271,0.201874,3.043060,-1.929016,1,2,1,1,2,55.000000
2024-12-17 13:48:17.069,,,,,,,,,,,,,,,,,,,,,,,,,,,,,,,,,,,,,,/muse/elements/blink
2024-12-17 13:48:17.545,1.089560881338762,1.058220331853525,0.4851452867125604,0.9666416101862589,0.9040736897096127,0.4288337802367565,0.3534440788001937,0.7223177304503836,0.644415265714864,0.7406214168609861,0.4888593075103489,0.6753653387933919,0.9792106744126851,1.134627812321817,0.4207400995966738,0.6763336236423469,0.8540126245625482,0.7035003559385837,0.09205980869133636,0.7080845892146341,841.3186813186813,800.2197802197802,792.967032967033,788.1318681318681,730.9157509157509,-0.597473,0.137390,1.521606,0.134583,3.895416,11.491852,1,2,1,1,2,50.000000
2024-12-17 13:48:18.045,1.089560881338762,0.9581033660355645,0.412430114027022,0.9666416101862589,0.9040736897096127,0.6250385045767208,0.3074480101517656,0.7223177304503836,0.644415265714864,0.8879197026939502,0.490060630183183,0.6753653387933919,0.9792106744126851,0.8459804758367868,0.401003919055758,0.6763336236423469,0.8540126245625482,0.5082730585314155,0.04655813162257225,0.7080845892146341,826.4102564102565,804.2490842490843,797.8021978021978,790.952380952381,567.3260073260074,-0.471375,0.086060,1.225037,-0.829926,6.744080,-7.970276,1,2,1,1,2,50.000000
2024-12-17 13:48:18.545,1.089560881338762,0.9656766027199072,0.4913548560435222,0.9666416101862589,0.9040736897096127,0.5158392562515113,0.3060554376701223,0.7223177304503836,0.644415265714864,0.8879197026939502,0.4912231906848623,0.6753653387933919,0.9792106744126851,0.7749675565029805,0.3290821364561362,0.6763336236423469,0.8540126245625482,0.5231699472772096,-0.05477203900251025,0.7080845892146341,838.4981684981685,791.7582417582418,788.1318681318681,811.0989010989011,731.7216117216118,-0.268555,0.101257,0.847290,-2.041168,-2.781372,-4.882355,1,2,1,1,2,50.000000
2024-12-17 13:48:18.630,,,,,,,,,,,,,,,,,,,,,,,,,,,,,,,,,,,,,,/muse/elements/blink
2024-12-17 13:48:19.045,1.089560881338762,1.013208736653983,0.6763425022161528,0.9666416101862589,0.9040736897096127,0.4843932217595455,0.2503060952520878,0.7223177304503836,0.644415265714864,0.8879197026939502,0.4143209887524677,0.6753653387933919,0.9792106744126851,0.7667038575579502,0.2119356793765802,0.6763336236423469,0.8540126245625482,0.5354478841177104,-0.2227912933158974,0.7080845892146341,802.2344322344322,789.3406593406594,798.6080586080586,802.2344322344322,811.9047619047619,-0.247314,0.048462,0.856689,9.622650,-11.282501,4.762726,1,2,1,1,2,50.000000
2024-12-17 13:48:19.149,,,,,,,,,,,,,,,,,,,,,,,,,,,,,,,,,,,,,,/muse/elements/blink
2024-12-17 13:48:19.544,1.089560881338762,1.048255525688349,0.7666379439827622,0.9666416101862589,0.9040736897096127,0.3506885945260234,0.4218767438734563,0.7223177304503836,0.644415265714864,0.671731882045194,0.49880834549362,0.6753653387933919,0.9792106744126851,0.6850331055188522,0.1661508083111833,0.6763336236423469,0.8540126245625482,0.5455602474808161,-0.2760539518988095,0.7080845892146341,819.1575091575091,781.6849816849817,796.5934065934066,802.2344322344322,618.901098901099,-0.247498,0.071228,0.757446,-1.816864,5.570221,-8.015137,1,2,1,1,2,50.000000
2024-12-17 13:48:20.053,1.089560881338762,1.098632730816837,0.8909256393266765,0.9666416101862589,0.9040736897096127,0.332488666730352,0.5864971529982476,0.7223177304503836,0.644415265714864,0.5710058245399179,0.5039629596998855,0.6753653387933919,0.9792106744126851,0.7617602232136876,0.277225399927837,0.6763336236423469,0.8540126245625482,0.5788285208974613,-0.1000301429081031,0.7080845892146341,707.948717948718,773.2234432234433,778.4615384615385,713.1868131868132,655.9706959706959,-0.227966,0.021179,0.664246,14.437714,3.454285,8.224487,1,2,1,1,2,50.000000
2024-12-17 13:48:20.552,1.089560881338762,1.098632730816837,0.7792567848939902,0.9666416101862589,0.9040736897096127,0.332488666730352,0.4818327420556546,0.7223177304503836,0.644415265714864,0.5710058245399179,0.574433099923499,0.6753653387933919,0.9792106744126851,0.7617602232136876,0.321295055557908,0.6763336236423469,0.8540126245625482,0.5788285208974613,0.04216127842089946,0.7080845892146341,751.8681318681319,762.7472527472528,763.5531135531136,719.6336996336996,712.7838827838829,-0.244202,0.060364,0.756592,-3.573914,-14.781647,-3.603821,1,2,1,1,2,50.000000
2024-12-17 13:48:20.793,,,,,,,,,,,,,,,,,,,,,,,,,,,,,,,,,,,,,,/muse/elements/blink
2024-12-17 13:48:21.044,1.089560881338762,1.098632730816837,0.8476552748048949,0.9666416101862589,0.9040736897096127,0.332488666730352,0.2765689763800117,0.7223177304503836,0.644415265714864,0.5710058245399179,0.512771005689174,0.6753653387933919,0.9792106744126851,0.7617602232136876,0.4457803159697478,0.6763336236423469,0.8540126245625482,0.5788285208974613,0.04115937456779564,0.7080845892146341,815.5311355311355,787.3260073260074,780.4761904761905,807.8754578754579,753.0769230769231,-0.299622,-0.002869,0.830994,5.323486,-14.377899,-2.482300,1,2,1,1,2,50.000000
2024-12-17 13:48:21.545,1.089560881338762,1.098632730816837,0.7207049374995731,0.9666416101862589,0.9040736897096127,0.332488666730352,0.4467355292586143,0.7223177304503836,0.644415265714864,0.5710058245399179,0.5748842254090212,0.6753653387933919,0.9792106744126851,0.7617602232136876,0.3808273485612273,0.6763336236423469,0.8540126245625482,0.5788285208974613,-0.03560435848432179,0.7080845892146341,823.5897435897436,792.967032967033,803.4432234432235,853.8095238095239,859.8534798534798,-0.380615,0.094116,0.895691,3.715973,-9.181519,-3.499146,1,2,1,1,2,50.000000
2024-12-17 13:48:21.575,,,,,,,,,,,,,,,,,,,,,,,,,,,,,,,,,,,,,,/muse/elements/blink
2024-12-17 13:48:22.057,1.089560881338762,1.098632730816837,0.8435988268914582,0.9666416101862589,0.9040736897096127,0.332488666730352,0.6283276902600408,0.7223177304503836,0.644415265714864,0.5710058245399179,0.4502524076890523,0.6753653387933919,0.9792106744126851,0.7617602232136876,0.389451617358007,0.6763336236423469,0.8540126245625482,0.5788285208974613,-0.1011835113117376,0.7080845892146341,992.4175824175825,819.96336996337,797.8021978021978,810.2930402930403,726.4835164835165,-0.409485,0.025818,1.219788,7.394562,-10.250702,7.626343,1,2,1,1,2,50.000000
2024-12-17 13:48:22.545,1.089560881338762,1.094309532063148,0.7951440583931352,0.9666416101862589,0.9040736897096127,0.6878126857815623,0.7152750246828263,0.7223177304503836,0.644415265714864,1.058270348608401,0.4427039144705997,0.6753653387933919,0.9792106744126851,0.4829483792374765,0.2919647413905548,0.6763336236423469,0.8540126245625482,0.4580631153466383,-0.01602622503443319,0.7080845892146341,884.0293040293041,803.040293040293,797.8021978021978,865.4945054945056,718.021978021978,-0.504272,0.120667,1.282288,-2.228088,10.108643,1.614990,1,2,1,1,2,50.000000
2024-12-17 13:48:22.609,,,,,,,,,,,,,,,,,,,,,,,,,,,,,,,,,,,,,,/muse/elements/blink
2024-12-17 13:48:23.045,1.089560881338762,1.129516200428797,0.7455247163287075,0.9666416101862589,0.9040736897096127,0.6988929337539412,0.3875729990507149,0.7223177304503836,0.644415265714864,1.058270348608401,0.4381435073467632,0.6753653387933919,0.9792106744126851,0.4846549571330022,0.2623862444809302,0.6763336236423469,0.8540126245625482,0.4285639311012201,-0.00832927905810367,0.7080845892146341,768.7912087912088,781.2820512820513,802.2344322344322,783.6996336996338,920.2930402930403,-0.331604,0.105469,0.965515,1.577606,5.615082,8.777771,1,2,1,1,2,50.000000
2024-12-17 13:48:23.311,,,,,,,,,,,,,,,,,,,,,,,,,,,,,,,,,,,,,,/muse/elements/blink
2024-12-17 13:48:23.545,1.089560881338762,1.152150290628044,0.5951437588585183,0.9666416101862589,0.9040736897096127,0.6727285622882659,0.3792596436712469,0.7223177304503836,0.644415265714864,0.9650256265324876,0.5587325543354463,0.6753653387933919,0.9792106744126851,0.4804026484090986,0.33126955413512,0.6763336236423469,0.8540126245625482,0.4425198552287822,0.1264186658493028,0.7080845892146341,809.8901098901099,774.0293040293041,822.3809523809524,805.0549450549451,611.6483516483516,-0.350708,0.074463,1.020874,-2.362671,-4.815063,3.289795,1,2,1,1,2,50.000000
2024-12-17 13:48:24.051,1.089560881338762,1.243910405744233,0.909278707459236,0.9666416101862589,0.9040736897096127,0.6958658323406713,0.7541159717309529,0.7223177304503836,0.644415265714864,0.8426598718768036,0.6167816985027755,0.6753653387933919,0.9792106744126851,0.4999287237110661,0.3379362638513945,0.6763336236423469,0.8540126245625482,0.4277972878879739,0.08920940488715996,0.7080845892146341,821.1721611721612,793.3699633699634,805.0549450549451,772.014652014652,842.9304029304029,-0.268188,0.145630,0.843323,7.708588,7.185211,-7.955322,1,2,1,1,2,50.000000
2024-12-17 13:48:24.544,1.089560881338762,1.243910405744233,1.030572061802019,0.9666416101862589,0.9040736897096127,0.6958658323406713,0.8546616766935,0.7223177304503836,0.644415265714864,0.8426598718768036,0.6808053949391939,0.6753653387933919,0.9792106744126851,0.4999287237110661,0.4681661954277878,0.6763336236423469,0.8540126245625482,0.4277972878879739,0.2809752564530288,0.7080845892146341,591.9047619047619,775.2380952380953,815.1282051282052,719.6336996336996,972.6739926739928,-0.275452,0.056824,0.670166,2.429962,-4.239349,9.749756,1,2,1,1,2,50.000000
2024-12-17 13:48:24.732,,,,,,,,,,,,,,,,,,,,,,,,,,,,,,,,,,,,,,/muse/elements/blink
2024-12-17 13:48:25.044,1.089560881338762,1.243910405744233,1.014503156707812,0.9666416101862589,0.9040736897096127,0.6958658323406713,0.7742271929210847,0.7223177304503836,0.644415265714864,0.8426598718768036,0.6808053949391939,0.6753653387933919,0.9792106744126851,0.4999287237110661,0.714654908540408,0.6763336236423469,0.8540126245625482,0.4277972878879739,0.6181947725955931,0.7080845892146341,823.992673992674,815.934065934066,787.7289377289378,812.7106227106227,554.0293040293041,-0.310547,0.090149,0.732178,-5.914154,-28.008118,-17.555542,1,2,1,1,2,50.000000
2024-12-17 13:48:25.270,,,,,,,,,,,,,,,,,,,,,,,,,,,,,,,,,,,,,,/muse/elements/blink
2024-12-17 13:48:25.518,,,,,,,,,,,,,,,,,,,,,,,,,,,,,,,,,,,,,,/muse/elements/blink
2024-12-17 13:48:25.544,1.089560881338762,1.243910405744233,0.7090435461098027,0.9666416101862589,0.9040736897096127,0.6958658323406713,0.2097499685300592,0.7223177304503836,0.644415265714864,0.8426598718768036,0.3146026981319098,0.6753653387933919,0.9792106744126851,0.4999287237110661,0.7854171227280915,0.6763336236423469,0.8540126245625482,0.4277972878879739,0.7223506068892969,0.7080845892146341,838.4981684981685,794.5787545787546,805.4578754578755,831.6483516483516,839.7069597069598,-0.205139,-0.053467,0.853271,1.398163,-8.912354,-4.568329,1,2,1,1,2,50.000000
2024-12-17 13:48:26.048,1.089560881338762,1.243910405744233,0.5107977398885273,0.9666416101862589,0.9040736897096127,0.6958658323406713,0.02069018465452431,0.7223177304503836,0.644415265714864,0.8426598718768036,0.1398219645432893,0.6753653387933919,0.9792106744126851,0.4999287237110661,0.841619052123605,0.6763336236423469,0.8540126245625482,0.4277972878879739,0.789360851996209,0.7080845892146341,815.5311355311355,809.0842490842491,780.0732600732601,796.1904761904763,773.2234432234433,-0.262268,0.124084,0.986633,3.813171,-4.261780,-7.775879,1,2,1,1,2,50.000000
2024-12-17 13:48:26.130,,,,,,,,,,,,,,,,,,,,,,,,,,,,,,,,,,,,,,/muse/elements/blink
2024-12-17 13:48:26.545,1.089560881338762,1.243910405744233,0.5107977398885273,0.9666416101862589,0.9040736897096127,0.6958658323406713,0.02069018465452431,0.7223177304503836,0.644415265714864,0.8426598718768036,0.1398219645432893,0.6753653387933919,0.9792106744126851,0.4999287237110661,0.841619052123605,0.6763336236423469,0.8540126245625482,0.4277972878879739,0.789360851996209,0.7080845892146341,892.893772893773,807.4725274725275,819.5604395604396,828.8278388278388,843.7362637362637,-0.490112,0.021057,1.303223,-2.886047,14.407806,8.351593,1,2,1,1,2,50.000000
2024-12-17 13:48:27.045,1.089560881338762,1.243910405744233,1.06574590039086,0.9666416101862589,0.9040736897096127,0.6958658323406713,0.8967455841692255,0.7223177304503836,0.644415265714864,0.8426598718768036,0.4320981293637949,0.6753653387933919,0.9792106744126851,0.4999287237110661,0.497187085394578,0.6763336236423469,0.8540126245625482,0.4277972878879739,0.168405959823587,0.7080845892146341,830.0366300366301,821.978021978022,787.7289377289378,812.3076923076924,620.1098901098901,-0.332153,0.043213,0.952271,6.116028,-1.128998,-0.725250,1,2,1,1,2,50.000000
2024-12-17 13:48:27.544,1.089560881338762,1.243910405744233,0.9533145403802034,0.9666416101862589,0.9040736897096127,0.6958658323406713,0.8116459621955863,0.7223177304503836,0.644415265714864,0.8426598718768036,0.5958267359748772,0.6753653387933919,0.9792106744126851,0.4999287237110661,0.5473287268547452,0.6763336236423469,0.8540126245625482,0.4277972878879739,0.2547613593884705,0.7080845892146341,795.7875457875458,817.1428571428571,799.0109890109891,821.5750915750916,747.4358974358975,-0.372864,0.106140,0.886047,2.542114,13.809662,2.310333,1,2,1,1,2,55.000000
2024-12-17 13:48:27.901,,,,,,,,,,,,,,,,,,,,,,,,,,,,,,,,,,,,,,/muse/elements/blink
2024-12-17 13:48:28.045,1.089560881338762,1.243910405744233,0.852926005336028,0.9666416101862589,0.9040736897096127,0.6958658323406713,0.7517773860010107,0.7223177304503836,0.644415265714864,0.8426598718768036,0.6289172514635814,0.6753653387933919,0.9792106744126851,0.4999287237110661,0.5189016334685349,0.6763336236423469,0.8540126245625482,0.4277972878879739,0.2064464517598394,0.7080845892146341,873.1501831501831,798.6080586080586,799.8168498168499,788.9377289377289,834.8717948717949,-0.394043,0.067749,0.827087,0.912170,-8.059998,6.975861,1,2,1,1,2,55.000000
2024-12-17 13:48:28.544,1.089560881338762,1.243910405744233,0.8691639519114115,0.9666416101862589,0.9040736897096127,0.6958658323406713,0.7010433994443455,0.7223177304503836,0.644415265714864,0.8426598718768036,0.5520766053145708,0.6753653387933919,0.9792106744126851,0.4999287237110661,0.4880338531126966,0.6763336236423469,0.8540126245625482,0.4277972878879739,0.1941142829927964,0.7080845892146341,749.8534798534798,781.2820512820513,795.3846153846154,768.7912087912088,663.2234432234433,-0.186279,0.071106,0.731567,2.265472,-7.813263,1.772003,1,2,1,1,2,55.000000
2024-12-17 13:48:29.045,1.089560881338762,1.243910405744233,0.8458383250620098,0.9666416101862589,0.9040736897096127,0.6958658323406713,0.579645787788329,0.7223177304503836,0.644415265714864,0.8426598718768036,0.4153276065866295,0.6753653387933919,0.9792106744126851,0.4999287237110661,0.2824412051035329,0.6763336236423469,0.8540126245625482,0.4277972878879739,-0.007492871244206475,0.7080845892146341,797.8021978021978,789.7435897435897,795.3846153846154,813.1135531135532,749.4505494505495,-0.325439,0.045959,0.769287,5.301056,-13.099365,5.697327,1,2,1,1,2,55.000000
2024-12-17 13:48:29.078,,,,,,,,,,,,,,,,,,,,,,,,,,,,,,,,,,,,,,/muse/elements/blink
2024-12-17 13:48:29.544,1.089560881338762,1.243910405744233,1.061973391603579,0.9666416101862589,0.9040736897096127,0.6958658323406713,0.7389050957835858,0.7223177304503836,0.644415265714864,0.8426598718768036,0.659354456646037,0.6753653387933919,0.9792106744126851,0.4999287237110661,0.03951443113313297,0.6763336236423469,0.8540126245625482,0.4277972878879739,0.06596929235003074,0.7080845892146341,749.8534798534798,759.92673992674,830.4395604395604,810.6959706959707,708.7545787545788,-0.259888,0.079590,0.757568,1.263580,-17.406006,-2.444916,1,2,1,1,2,55.000000
2024-12-17 13:48:30.045,1.089560881338762,1.243910405744233,1.015830722103431,0.9666416101862589,0.9040736897096127,0.6958658323406713,0.740453264778239,0.7223177304503836,0.644415265714864,0.8426598718768036,0.7490387203972877,0.6753653387933919,0.9792106744126851,0.4999287237110661,0.07993107059596731,0.6763336236423469,0.8540126245625482,0.4277972878879739,0.01639404229107928,0.7080845892146341,659.1941391941392,778.4615384615385,812.3076923076924,794.5787545787546,821.978021978022,-0.260437,0.039124,0.602356,15.334930,-10.407715,7.962799,1,2,1,1,2,55.000000
2024-12-17 13:48:30.390,,,,,,,,,,,,,,,,,,,,,,,,,,,,,,,,,,,,,,/muse/elements/blink
2024-12-17 13:48:30.545,1.089560881338762,1.243910405744233,1.050279749121497,0.9666416101862589,0.9040736897096127,0.6958658323406713,0.8383720793240044,0.7223177304503836,0.644415265714864,0.8426598718768036,0.7527138665470726,0.6753653387933919,0.9792106744126851,0.4999287237110661,0.1279875426775328,0.6763336236423469,0.8540126245625482,0.4277972878879739,-0.0226605247181847,0.7080845892146341,834.4688644688645,813.5164835164835,792.5641025641025,812.3076923076924,701.9047619047619,-0.273621,0.086670,0.716858,1.024323,-5.226288,-6.729126,1,2,1,1,2,55.000000
2024-12-17 13:48:31.044,1.089560881338762,1.243910405744233,1.027651901879103,0.9666416101862589,0.9040736897096127,0.6958658323406713,0.8599172638766308,0.7223177304503836,0.644415265714864,0.8426598718768036,0.4811096080004332,0.6753653387933919,0.9792106744126851,0.4999287237110661,0.2171226523596154,0.6763336236423469,0.8540126245625482,0.4277972878879739,-0.2950555544498561,0.7080845892146341,775.6410256410256,799.4139194139194,800.2197802197802,807.0695970695971,666.8498168498169,-0.309387,0.024780,0.909546,1.457977,-11.491852,2.078552,1,2,1,1,2,55.000000
2024-12-17 13:48:31.400,,,,,,,,,,,,,,,,,,,,,,,,,,,,,,,,,,,,,,/muse/elements/blink
2024-12-17 13:48:31.549,1.089560881338762,1.243910405744233,1.027651901879103,0.9666416101862589,0.9040736897096127,0.6958658323406713,0.8599172638766308,0.7223177304503836,0.644415265714864,0.8426598718768036,0.4811096080004332,0.6753653387933919,0.9792106744126851,0.4999287237110661,0.2171226523596154,0.6763336236423469,0.8540126245625482,0.4277972878879739,-0.2950555544498561,0.7080845892146341,844.1391941391942,801.025641025641,797.8021978021978,800.6227106227107,1058.498168498169,-0.275635,0.093994,0.908691,1.682281,0.456085,-0.269165,1,2,1,1,2,55.000000
2024-12-17 13:48:32.052,1.089560881338762,1.243910405744233,1.1029066921446,0.9666416101862589,0.9040736897096127,0.6958658323406713,0.6385452022693674,0.7223177304503836,0.644415265714864,0.8426598718768036,0.3904454005088432,0.6753653387933919,0.9792106744126851,0.4999287237110661,0.1872917885691021,0.6763336236423469,0.8540126245625482,0.4277972878879739,0.1056424467401382,0.7080845892146341,821.978021978022,815.5311355311355,776.8498168498169,836.8864468864469,1147.142857142857,-0.409119,0.054871,0.998901,-6.280518,1.136475,11.484375,1,2,1,1,2,55.000000
2024-12-17 13:48:32.156,,,,,,,,,,,,,,,,,,,,,,,,,,,,,,,,,,,,,,/muse/elements/blink
2024-12-17 13:48:32.547,1.089560881338762,1.243910405744233,1.064000021060525,0.9666416101862589,0.9040736897096127,0.6958658323406713,0.7190600338321248,0.7223177304503836,0.644415265714864,0.8426598718768036,0.6460197296279413,0.6753653387933919,0.9792106744126851,0.4999287237110661,0.2500918040478262,0.6763336236423469,0.8540126245625482,0.4277972878879739,0.1136340133406518,0.7080845892146341,841.7216117216118,818.7545787545788,803.4432234432235,850.1831501831502,672.0879120879121,-0.781738,0.133057,1.820801,1.315918,10.243225,-7.656250,1,2,1,1,2,55.000000
2024-12-17 13:48:33.055,1.089560881338762,1.243910405744233,1.118558193138531,0.9666416101862589,0.9040736897096127,0.6958658323406713,0.7725644329561416,0.7223177304503836,0.644415265714864,0.8426598718768036,0.7121169978231692,0.6753653387933919,0.9792106744126851,0.4999287237110661,0.2580610900115713,0.6763336236423469,0.8540126245625482,0.4277972878879739,0.07653211074368421,0.7080845892146341,759.92673992674,809.0842490842491,799.4139194139194,748.2417582417582,877.1794871794872,-0.356812,0.167358,1.004761,6.908569,-5.884247,9.532928,1,2,1,1,2,55.000000
2024-12-17 13:48:33.253,,,,,,,,,,,,,,,,,,,,,,,,,,,,,,,,,,,,,,/muse/elements/blink
2024-12-17 13:48:33.554,1.089560881338762,1.243910405744233,1.13399939370443,0.9666416101862589,0.9040736897096127,0.6958658323406713,0.7898917012590756,0.7223177304503836,0.644415265714864,0.8426598718768036,0.7161378886318565,0.6753653387933919,0.9792106744126851,0.4999287237110661,0.2592462283543447,0.6763336236423469,0.8540126245625482,0.4277972878879739,0.04186553834012245,0.7080845892146341,794.1758241758242,786.1172161172161,817.1428571428571,823.1868131868132,682.5641025641025,-0.327209,0.089355,1.033081,3.461761,-2.340240,0.732727,1,2,1,1,2,55.000000
2024-12-17 13:48:34.044,1.089560881338762,1.243910405744233,1.101457287694058,0.9666416101862589,0.9040736897096127,0.6958658323406713,0.6884154098028076,0.7223177304503836,0.644415265714864,0.8426598718768036,0.7894993180927232,0.6753653387933919,0.9792106744126851,0.4999287237110661,0.2114708936638402,0.6763336236423469,0.8540126245625482,0.4277972878879739,0.005871331869154648,0.7080845892146341,828.8278388278388,821.1721611721612,786.1172161172161,801.8315018315019,607.6190476190476,-0.245239,0.094604,0.776489,0.620575,5.173950,-8.030090,1,2,1,1,2,55.000000
2024-12-17 13:48:34.543,,,,,,,,,,,,,,,,,,,,,,,,,,,,,,,,,,,,,,/muse/elements/blink
2024-12-17 13:48:34.564,1.089560881338762,1.243910405744233,1.038527965504144,0.9666416101862589,0.9040736897096127,0.6958658323406713,0.6107509209259844,0.7223177304503836,0.644415265714864,0.8426598718768036,0.7758324165302396,0.6753653387933919,0.9792106744126851,0.4999287237110661,0.2275731471764212,0.6763336236423469,0.8540126245625482,0.4277972878879739,0.02595366207839489,0.7080845892146341,763.5531135531136,796.5934065934066,805.8608058608058,777.2527472527473,716.4102564102565,-0.235046,0.059387,0.727295,5.510406,-1.951447,4.381409,1,2,1,1,2,55.000000
2024-12-17 13:48:35.050,1.089560881338762,1.243910405744233,0.8797358889489622,0.9666416101862589,0.9040736897096127,0.6958658323406713,0.4748517657702707,0.7223177304503836,0.644415265714864,0.8426598718768036,0.7936461305350893,0.6753653387933919,0.9792106744126851,0.4999287237110661,0.3275173651136298,0.6763336236423469,0.8540126245625482,0.4277972878879739,0.1861935408763163,0.7080845892146341,831.2454212454213,801.025641025641,801.4285714285714,810.2930402930403,746.2271062271062,-0.378235,0.026001,0.778931,8.845062,-0.747681,-10.131073,1,2,1,1,2,55.000000
2024-12-17 13:48:35.545,1.089560881338762,1.243910405744233,0.961754917465067,0.9666416101862589,0.9040736897096127,0.6958658323406713,0.5568007142780735,0.7223177304503836,0.644415265714864,0.8426598718768036,0.9769325075276215,0.6753653387933919,0.9792106744126851,0.4999287237110661,0.5407286612626981,0.6763336236423469,0.8540126245625482,0.4277972878879739,0.3284400091502606,0.7080845892146341,785.3113553113553,811.5018315018315,819.5604395604396,751.4652014652015,644.6886446886447,-0.373474,0.027283,0.906189,-5.547791,-21.092072,1.181335,1,2,1,1,2,55.000000
2024-12-17 13:48:35.877,,,,,,,,,,,,,,,,,,,,,,,,,,,,,,,,,,,,,,/muse/elements/blink
2024-12-17 13:48:36.045,1.089560881338762,1.243910405744233,1.174479017601886,0.9666416101862589,0.9040736897096127,0.6958658323406713,0.6858283920520181,0.7223177304503836,0.644415265714864,0.8426598718768036,1.05488989916904,0.6753653387933919,0.9792106744126851,0.4999287237110661,0.5267970761211871,0.6763336236423469,0.8540126245625482,0.4277972878879739,0.2957750217859732,0.7080845892146341,867.1062271062272,761.941391941392,795.3846153846154,813.919413919414,650.3296703296703,-0.373291,0.068665,0.791809,5.091705,-0.994415,-11.364746,1,2,1,1,2,55.000000
2024-12-17 13:48:36.545,1.089560881338762,1.243910405744233,1.310363976227794,0.9666416101862589,0.9040736897096127,0.6958658323406713,0.7402386503584139,0.7223177304503836,0.644415265714864,0.8426598718768036,1.075526726085994,0.6753653387933919,0.9792106744126851,0.4999287237110661,0.5151689368366308,0.6763336236423469,0.8540126245625482,0.4277972878879739,0.1487403934511937,0.7080845892146341,922.7106227106227,769.5970695970697,770.8058608058608,831.2454212454213,513.7362637362637,-0.440979,0.018860,0.848206,-7.581482,2.130890,6.205750,1,2,1,1,2,55.000000
2024-12-17 13:48:36.739,,,,,,,,,,,,,,,,,,,,,,,,,,,,,,,,,,,,,,/muse/elements/blink
2024-12-17 13:48:37.045,1.089560881338762,1.243910405744233,1.384171638266467,0.9666416101862589,0.9040736897096127,0.6958658323406713,0.7734946254729889,0.7223177304503836,0.644415265714864,0.8426598718768036,1.009250041802522,0.6753653387933919,0.9792106744126851,0.4999287237110661,0.360684088802445,0.6763336236423469,0.8540126245625482,0.4277972878879739,-0.1683947369076852,0.7080845892146341,890.4761904761905,792.967032967033,772.8205128205128,781.6849816849817,461.7582417582418,-0.272461,0.144592,0.851318,1.143951,7.043152,0.261688,1,2,1,1,2,55.000000
2024-12-17 13:48:37.544,1.089560881338762,1.243910405744233,1.281050845383989,0.9666416101862589,0.9040736897096127,0.6958658323406713,0.5312173103819499,0.7223177304503836,0.644415265714864,0.8426598718768036,0.8761756702514851,0.6753653387933919,0.9792106744126851,0.4999287237110661,0.4225321708004934,0.6763336236423469,0.8540126245625482,0.4277972878879739,-0.1415887832829601,0.7080845892146341,774.8351648351648,792.967032967033,800.2197802197802,776.8498168498169,969.047619047619,-0.384399,0.127136,1.179443,6.669312,-1.839294,14.026489,1,2,1,1,2,55.000000
2024-12-17 13:48:37.712,,,,,,,,,,,,,,,,,,,,,,,,,,,,,,,,,,,,,,/muse/elements/blink
2024-12-17 13:48:38.056,1.089560881338762,1.243910405744233,1.224261311269915,0.9666416101862589,0.9040736897096127,0.6958658323406713,0.2843534613034174,0.7223177304503836,0.644415265714864,0.8426598718768036,0.6934704603820823,0.6753653387933919,0.9792106744126851,0.4999287237110661,0.5173633233405582,0.6763336236423469,0.8540126245625482,0.4277972878879739,-0.09930263784823802,0.7080845892146341,695.8608058608058,840.5128205128206,781.2820512820513,715.6043956043957,763.956043956044,-0.315613,0.061646,1.031189,-1.330872,-3.596344,-1.644897,1,2,1,1,2,55.000000
2024-12-17 13:48:38.207,,,,,,,,,,,,,,,,,,,,,,,,,,,,,,,,,,,,,,/muse/elements/blink
2024-12-17 13:48:38.553,1.089560881338762,1.243910405744233,1.224261311269915,0.9666416101862589,0.9040736897096127,0.6958658323406713,0.2843534613034174,0.7223177304503836,0.644415265714864,0.8426598718768036,0.6934704603820823,0.6753653387933919,0.9792106744126851,0.4999287237110661,0.5173633233405582,0.6763336236423469,0.8540126245625482,0.4277972878879739,-0.09930263784823802,0.7080845892146341,828.8278388278388,827.2161172161173,812.7106227106227,857.8388278388279,780.8791208791209,-0.369629,0.099731,0.923889,8.030090,7.596436,-2.564545,1,2,1,1,2,55.000000
2024-12-17 13:48:39.044,1.089560881338762,1.243910405744233,1.224261311269915,0.9666416101862589,0.9040736897096127,0.6958658323406713,0.2843534613034174,0.7223177304503836,0.644415265714864,0.8426598718768036,0.6934704603820823,0.6753653387933919,0.9792106744126851,0.4999287237110661,0.5173633233405582,0.6763336236423469,0.8540126245625482,0.4277972878879739,-0.09930263784823802,0.7080845892146341,805.4578754578755,788.1318681318681,814.3223443223443,826.4102564102565,788.1318681318681,-0.232849,0.038879,0.869385,-2.751465,-29.099731,8.007660,1,2,1,1,2,55.000000
2024-12-17 13:48:39.346,,,,,,,,,,,,,,,,,,,,,,,,,,,,,,,,,,,,,,/muse/elements/blink
2024-12-17 13:48:39.545,1.089560881338762,1.243910405744233,0.8342443178948716,0.9666416101862589,0.9040736897096127,0.6958658323406713,0.6108159881446162,0.7223177304503836,0.644415265714864,0.8426598718768036,0.6136913042659081,0.6753653387933919,0.9792106744126851,0.4999287237110661,0.5074938748183386,0.6763336236423469,0.8540126245625482,0.4277972878879739,0.133527587917621,0.7080845892146341,831.2454212454213,823.1868131868132,786.1172161172161,776.4468864468864,744.2124542124542,-0.378662,0.073547,0.805908,2.572021,12.628326,-10.639496,1,2,1,1,2,55.000000
2024-12-17 13:48:40.045,1.089560881338762,1.243910405744233,0.8441755528721482,0.9666416101862589,0.9040736897096127,0.6958658323406713,0.6078328591976926,0.7223177304503836,0.644415265714864,0.8426598718768036,0.6443550097018644,0.6753653387933919,0.9792106744126851,0.4999287237110661,0.4784840116441126,0.6763336236423469,0.8540126245625482,0.4277972878879739,0.08434586534778329,0.7080845892146341,997.6556776556777,792.967032967033,788.5347985347986,694.2490842490843,636.2271062271062,-0.259094,0.010315,0.772522,10.228271,-12.157288,-2.998199,1,2,1,1,2,55.000000
2024-12-17 13:48:40.551,1.089560881338762,1.243910405744233,0.8789581707232841,0.9666416101862589,0.9040736897096127,0.6958658323406713,0.5485716336710309,0.7223177304503836,0.644415265714864,0.8426598718768036,0.6517230793622829,0.6753653387933919,0.9792106744126851,0.4999287237110661,0.4448307685205948,0.6763336236423469,0.8540126245625482,0.4277972878879739,0.05625257100371704,0.7080845892146341,828.8278388278388,770.4029304029305,809.8901098901099,835.6776556776557,693.4432234432235,-0.275879,0.075073,0.806885,21.278992,-16.583557,-48.060913,1,2,1,1,2,55.000000
2024-12-17 13:48:40.564,,,,,,,,,,,,,,,,,,,,,,,,,,,,,,,,,,,,,,/muse/elements/blink
2024-12-17 13:48:40.989,,,,,,,,,,,,,,,,,,,,,,,,,,,,,,,,,,,,,,/muse/elements/blink
2024-12-17 13:48:41.045,1.089560881338762,1.243910405744233,0.992762584272142,0.9666416101862589,0.9040736897096127,0.6958658323406713,0.5759855968251816,0.7223177304503836,0.644415265714864,0.8426598718768036,0.5957423678749755,0.6753653387933919,0.9792106744126851,0.4999287237110661,0.4239162916171139,0.6763336236423469,0.8540126245625482,0.4277972878879739,0.07393275333857915,0.7080845892146341,925.934065934066,751.0622710622711,818.7545787545788,851.3919413919414,855.8241758241759,-0.372864,-0.007019,1.108337,14.138641,-6.646881,-60.861206,1,2,1,1,2,55.000000
2024-12-17 13:48:41.545,1.089560881338762,1.243910405744233,1.003002280112024,0.9666416101862589,0.9040736897096127,0.6958658323406713,0.4974432140358714,0.7223177304503836,0.644415265714864,0.8426598718768036,0.805116555843309,0.6753653387933919,0.9792106744126851,0.4999287237110661,0.462810373963324,0.6763336236423469,0.8540126245625482,0.4277972878879739,0.1315893596449234,0.7080845892146341,782.4908424908425,813.919413919414,799.0109890109891,788.9377289377289,558.8644688644689,-0.345825,0.106628,1.093384,4.366455,-13.719940,-36.853180,1,2,1,1,2,55.000000
2024-12-17 13:48:42.045,1.089560881338762,1.243910405744233,0.8762463465885764,0.9666416101862589,0.9040736897096127,0.6958658323406713,0.3876138912961238,0.7223177304503836,0.644415265714864,0.8426598718768036,0.7772303778386221,0.6753653387933919,0.9792106744126851,0.4999287237110661,0.4917685165876839,0.6763336236423469,0.8540126245625482,0.4277972878879739,0.1865175118919465,0.7080845892146341,830.4395604395604,770.8058608058608,830.8424908424909,849.7802197802198,770.4029304029305,-0.261475,0.179749,0.926697,-4.665527,2.714081,15.230255,1,2,1,1,2,55.000000
2024-12-17 13:48:42.114,,,,,,,,,,,,,,,,,,,,,,,,,,,,,,,,,,,,,,/muse/elements/blink
2024-12-17 13:48:42.492,,,,,,,,,,,,,,,,,,,,,,,,,,,,,,,,,,,,,,/muse/elements/blink
2024-12-17 13:48:42.545,1.089560881338762,0.7994788089748835,0.822905986053735,0.9666416101862589,0.9040736897096127,0.473098453500346,0.417458215714332,0.7223177304503836,0.644415265714864,0.5630306563539925,0.8071830668872443,0.6753653387933919,0.9792106744126851,0.9063178784728642,0.4431983733671513,0.6763336236423469,0.8540126245625482,0.6081056618684555,0.2568566702929383,0.7080845892146341,849.3772893772895,799.0109890109891,791.7582417582418,801.8315018315019,876.3736263736264,-0.365662,-0.086182,1.049255,3.274841,-9.503021,-24.994965,1,2,1,1,2,55.000000
2024-12-17 13:48:43.045,1.089560881338762,0.7994788089748835,1.009042392831318,0.9666416101862589,0.9040736897096127,0.473098453500346,0.6255336821851998,0.7223177304503836,0.644415265714864,0.5630306563539925,0.7534854411157306,0.6753653387933919,0.9792106744126851,0.9063178784728642,0.4020351747824236,0.6763336236423469,0.8540126245625482,0.6081056618684555,0.2335040092999521,0.7080845892146341,831.2454212454213,786.5201465201466,809.0842490842491,794.5787545787546,687.3992673992674,-0.159790,0.063477,0.978271,15.417175,-9.547882,-75.231628,1,2,1,1,2,55.000000
