TimeStamp,Delta_TP9,Delta_AF7,Delta_AF8,Delta_TP10,Theta_TP9,Theta_AF7,Theta_AF8,Theta_TP10,Alpha_TP9,Alpha_AF7,Alpha_AF8,Alpha_TP10,Beta_TP9,Beta_AF7,Beta_AF8,Beta_TP10,Gamma_TP9,Gamma_AF7,Gamma_AF8,Gamma_TP10,RAW_TP9,RAW_AF7,RAW_AF8,RAW_TP10,AUX_RIGHT,Accelerometer_X,Accelerometer_Y,Accelerometer_Z,Gyro_X,Gyro_Y,Gyro_Z,HeadBandOn,HSI_TP9,HSI_AF7,HSI_AF8,HSI_TP10,Battery,Elements
2024-11-25 14:06:46.815,,,,,,,,,,,,,,,,,,,,,,,,,,,,,,,,,,,,,,/muse/event/connected Muse-D2D3
2024-11-25 14:06:47.318,0.5506028789937525,0.576913704132992,1.23265703523805,1.721493763131133,0.8167304315342176,0.2944485837215571,1.32510274537391,1.222084570717454,0.8647373003582391,0.7465108829503173,1.356699226186452,1.573362037290218,0.2781157035792577,0.5467192848512167,0.8486886076084649,0.7815586149973771,0.1348056425042698,0.4359386384989651,0.4920116931843272,0.3002401446306756,827.2161172161173,803.040293040293,803.040293040293,724.4688644688645,571.7582417582418,-0.562622,0.116699,0.837891,2.415009,-1.779480,0.515900,1,2,1,1,2,50.000000
2024-11-25 14:06:47.820,0.5506028789937525,0.3001647030034603,1.23265703523805,1.721493763131133,0.8167304315342176,-0.01859740519021254,1.32510274537391,1.222084570717454,0.8647373003582391,0.261698212229578,1.356699226186452,1.573362037290218,0.2781157035792577,0.502612234891051,0.8486886076084649,0.7815586149973771,0.1348056425042698,0.3768640906916942,0.4920116931843272,0.3002401446306756,833.2600732600733,783.2967032967033,788.1318681318681,689.4139194139194,694.6520146520147,-0.561584,0.115295,0.843079,2.250519,-1.996307,0.284119,1,2,1,1,2,50.000000
2024-11-25 14:06:48.316,0.5506028789937525,0.2809098397706272,1.269360968625738,1.721493763131133,0.8167304315342176,-0.2266246831598856,0.8957360801492316,1.222084570717454,0.8647373003582391,0.1962751323490508,0.7959661044751898,1.573362037290218,0.2781157035792577,0.5314562147303241,0.5320327228284935,0.7815586149973771,0.1348056425042698,0.436097149483475,0.7437086068139841,0.3002401446306756,809.4871794871796,794.981684981685,796.5934065934066,917.4725274725275,697.8754578754579,-0.549316,0.115540,0.848328,2.886047,-1.622467,1.330872,1,2,1,1,2,50.000000
2024-11-25 14:06:48.816,0.5506028789937525,0.1437855791723389,1.174226003214879,1.721493763131133,0.8167304315342176,-0.1981532167861258,0.8020000767528235,1.222084570717454,0.8647373003582391,0.2241758886784644,0.8067431686999437,1.573362037290218,0.2781157035792577,0.6054974094259784,0.6857348517470279,0.7815586149973771,0.1348056425042698,0.5056160813825824,0.7113494217004863,0.3002401446306756,799.4139194139194,806.2637362637363,814.3223443223443,975.8974358974359,741.7948717948718,-0.543579,0.113525,0.849792,2.108459,-3.267365,-0.336456,1,2,1,1,2,50.000000
2024-11-25 14:06:49.316,0.4823299285306257,-0.03293258270823991,0.9250523598474178,1.721493763131133,0.2034746357662484,0.1040553946263991,0.6130608917400032,1.222084570717454,0.330953210680849,0.1014903168034719,0.7494612137684866,1.573362037290218,0.3132922271128683,0.5977344857624961,0.6862898442516688,0.7815586149973771,0.228900926616607,0.455122896113248,0.5465513449150148,0.3002401446306756,800.6227106227107,806.2637362637363,799.4139194139194,834.4688644688645,1001.684981684982,-0.546936,0.115784,0.839966,2.721558,-1.472931,0.807495,1,1,1,1,1,50.000000
2024-11-25 14:06:49.637,,,,,,,,,,,,,,,,,,,,,,,,,,,,,,,,,,,,,,/muse/elements/blink
2024-11-25 14:06:49.815,0.4823299285306257,-0.05344485493871341,0.2729019021966366,1.721493763131133,0.2034746357662484,0.1071525327150803,0.06659013502145335,1.222084570717454,0.330953210680849,0.1371968141366608,0.4209235506368284,1.573362037290218,0.3132922271128683,0.5654959029104655,0.6649546301430452,0.7815586149973771,0.228900926616607,0.3963805150559416,0.330863448480631,0.3002401446306756,799.8168498168499,803.8461538461539,810.6959706959707,855.0183150183151,913.8461538461539,-0.542664,0.115967,0.852051,2.153320,-1.786957,0.067291,1,1,1,1,2,50.000000
2024-11-25 14:06:50.318,0.4823299285306257,-0.03006761942599401,0.2920051324045447,1.721493763131133,0.2034746357662484,0.08139781009739298,0.09916736887771431,1.222084570717454,0.330953210680849,0.2480227196005826,0.5688137257846844,1.573362037290218,0.3132922271128683,0.5059614685283225,0.6395969027854738,0.7815586149973771,0.228900926616607,0.379585803866479,0.3168021307798048,0.3002401446306756,805.8608058608058,802.6373626373627,803.4432234432235,829.2307692307693,589.4871794871796,-0.526550,0.105591,0.858643,1.764526,-3.603821,0.463562,1,1,1,1,1,50.000000
2024-11-25 14:06:50.823,0.4882548812497076,-0.02899958964353899,0.3153605781770277,1.721493763131133,0.1998883787120817,0.02795231279015685,0.08251215588281338,1.222084570717454,0.2902282030826319,0.5055850967186316,0.6046587868569059,1.573362037290218,0.3278170403148993,0.4421937503164892,0.7222460573179569,0.7815586149973771,0.2265883134593487,0.4534816601760938,0.3931675668641608,0.3002401446306756,791.7582417582418,804.6520146520147,778.8644688644689,795.7875457875458,784.9084249084249,-0.545410,0.110352,0.854248,2.325287,-1.226196,0.635529,1,1,1,1,1,50.000000
2024-11-25 14:06:51.316,0.5452588998662733,0.02731603772247037,0.3351116439409951,1.721493763131133,0.3322203655066939,-0.1306274368802522,0.05098158839650912,1.222084570717454,0.4354060652156723,0.5115884429856704,0.5870309813488495,1.573362037290218,0.6436480182377171,0.4812331799543055,0.6980650170340116,0.7815586149973771,0.2456864915421637,0.5150484272230543,0.4016225606725941,0.3002401446306756,830.4395604395604,807.0695970695971,814.7252747252747,1037.142857142857,845.7509157509157,-0.527161,0.161865,0.770508,4.418793,-2.549591,2.026215,1,1,1,1,1,50.000000
2024-11-25 14:06:51.563,,,,,,,,,,,,,,,,,,,,,,,,,,,,,,,,,,,,,,/muse/elements/blink
2024-11-25 14:06:51.816,0.5452588998662733,-0.0223697599177566,0.2464048053881601,1.721493763131133,0.3322203655066939,-0.1524007228444483,-0.07090673991382422,1.222084570717454,0.4354060652156723,0.5115884429856704,0.4690394133435453,1.573362037290218,0.6436480182377171,0.5022586917628893,0.6677687036803597,0.7815586149973771,0.2456864915421637,0.5443412847263176,0.3894325481855707,0.3002401446306756,766.3736263736264,789.3406593406594,806.2637362637363,665.6410256410256,738.1684981684982,-0.666687,0.067261,0.751770,2.661743,-3.917847,-6.198273,1,1,1,1,1,50.000000
2024-11-25 14:06:52.001,,,,,,,,,,,,,,,,,,,,,,,,,,,,,,,,,,,,,,/muse/elements/blink
2024-11-25 14:06:52.267,,,,,,,,,,,,,,,,,,,,,,,,,,,,,,,,,,,,,,/muse/elements/blink
2024-11-25 14:06:52.320,0.6211969239640514,0.07951583057675432,0.1933559795618244,1.721493763131133,0.2729081302088395,-0.3797664494388475,-0.1699774341305518,1.222084570717454,0.3424629685846891,0.4163159930956448,0.2260589696573087,1.573362037290218,0.6286107572277562,0.5993117052607849,0.4360653883137835,0.7815586149973771,0.2200437934465352,0.4947558876085753,0.2907283768781423,0.3002401446306756,822.7838827838829,795.7875457875458,761.941391941392,618.4981684981685,725.6776556776557,-0.506897,0.167786,0.770752,0.261688,-3.648682,-2.400055,1,1,1,1,1,50.000000
2024-11-25 14:06:52.816,0.6681325367265543,0.09325200170901382,0.2122988589602782,1.721493763131133,0.262324480760696,-0.3689193995658505,-0.1822406697135067,1.222084570717454,0.2609897381269034,0.3004969157548724,0.2202826817046603,1.573362037290218,0.6207423404770084,0.5979098372243823,0.4383923842921442,0.7815586149973771,0.2058502319928566,0.4263498702453546,0.2975948400119389,0.3002401446306756,906.5934065934066,897.3260073260074,1039.96336996337,842.9304029304029,357.3992673992674,-0.675903,0.117981,1.026001,8.471222,0.157013,-1.600037,1,1,1,1,4,50.000000
2024-11-25 14:06:53.304,,,,,,,,,,,,,,,,,,,,,,,,,,,,,,,,,,,,,,/muse/elements/blink
2024-11-25 14:06:53.316,0.6681325367265543,0.09325200170901382,0.2122988589602782,1.721493763131133,0.262324480760696,-0.3689193995658505,-0.1822406697135067,1.222084570717454,0.2609897381269034,0.3004969157548724,0.2202826817046603,1.573362037290218,0.6207423404770084,0.5979098372243823,0.4383923842921442,0.7815586149973771,0.2058502319928566,0.4263498702453546,0.2975948400119389,0.3002401446306756,760.7326007326008,791.3553113553114,786.1172161172161,905.3846153846154,619.7069597069598,-0.641968,0.040955,0.854614,4.695435,-4.276733,-2.175751,1,1,1,1,4,50.000000
2024-11-25 14:06:53.589,,,,,,,,,,,,,,,,,,,,,,,,,,,,,,,,,,,,,,/muse/elements/blink
2024-11-25 14:06:53.822,0.6681325367265543,0.09325200170901382,0.2122988589602782,1.721493763131133,0.262324480760696,-0.3689193995658505,-0.1822406697135067,1.222084570717454,0.2609897381269034,0.3004969157548724,0.2202826817046603,1.573362037290218,0.6207423404770084,0.5979098372243823,0.4383923842921442,0.7815586149973771,0.2058502319928566,0.4263498702453546,0.2975948400119389,0.3002401446306756,807.0695970695971,811.9047619047619,863.0769230769231,554.8351648351648,892.893772893773,-0.541321,0.178955,0.688110,-0.889740,4.770203,4.366455,1,1,4,1,4,50.000000
2024-11-25 14:06:54.008,,,,,,,,,,,,,,,,,,,,,,,,,,,,,,,,,,,,,,/muse/elements/blink
2024-11-25 14:06:54.316,0.6681325367265543,0.09325200170901382,0.2122988589602782,1.721493763131133,0.262324480760696,-0.3689193995658505,-0.1822406697135067,1.222084570717454,0.2609897381269034,0.3004969157548724,0.2202826817046603,1.573362037290218,0.6207423404770084,0.5979098372243823,0.4383923842921442,0.7815586149973771,0.2058502319928566,0.4263498702453546,0.2975948400119389,0.3002401446306756,757.1062271062272,814.3223443223443,743.0036630036631,307.8388278388279,682.5641025641025,-0.546936,0.028015,0.680664,0.523376,-4.687958,7.013245,1,2,1,1,4,50.000000
2024-11-25 14:06:54.816,0.6681325367265543,0.09325200170901382,0.2122988589602782,1.721493763131133,0.262324480760696,-0.3689193995658505,-0.1822406697135067,1.222084570717454,0.2609897381269034,0.3004969157548724,0.2202826817046603,1.573362037290218,0.6207423404770084,0.5979098372243823,0.4383923842921442,0.7815586149973771,0.2058502319928566,0.4263498702453546,0.2975948400119389,0.3002401446306756,886.4468864468864,860.2564102564103,804.6520146520147,1625.824175824176,987.5824175824176,-0.605042,0.172363,0.864319,7.334747,-9.084320,-12.418976,1,2,4,1,4,50.000000
2024-11-25 14:06:54.929,,,,,,,,,,,,,,,,,,,,,,,,,,,,,,,,,,,,,,/muse/elements/blink
2024-11-25 14:06:55.127,,,,,,,,,,,,,,,,,,,,,,,,,,,,,,,,,,,,,,/muse/elements/blink
2024-11-25 14:06:55.316,0.6681325367265543,0.09325200170901382,0.2122988589602782,1.721493763131133,0.262324480760696,-0.3689193995658505,-0.1822406697135067,1.222084570717454,0.2609897381269034,0.3004969157548724,0.2202826817046603,1.573362037290218,0.6207423404770084,0.5979098372243823,0.4383923842921442,0.7815586149973771,0.2058502319928566,0.4263498702453546,0.2975948400119389,0.3002401446306756,836.0805860805862,781.2820512820513,803.040293040293,1627.032967032967,1245.054945054945,-0.715881,0.040344,1.019165,3.170166,0.261688,-0.897217,1,2,2,1,4,50.000000
2024-11-25 14:06:55.724,,,,,,,,,,,,,,,,,,,,,,,,,,,,,,,,,,,,,,/muse/elements/blink
2024-11-25 14:06:55.822,0.6681325367265543,0.09325200170901382,0.2122988589602782,1.721493763131133,0.262324480760696,-0.3689193995658505,-0.1822406697135067,1.222084570717454,0.2609897381269034,0.3004969157548724,0.2202826817046603,1.573362037290218,0.6207423404770084,0.5979098372243823,0.4383923842921442,0.7815586149973771,0.2058502319928566,0.4263498702453546,0.2975948400119389,0.3002401446306756,958.974358974359,861.4652014652015,878.3882783882784,408.1684981684982,534.2857142857143,-0.654907,0.073730,0.982849,11.476898,-2.138367,-4.082336,1,2,2,1,4,50.000000
2024-11-25 14:06:56.165,,,,,,,,,,,,,,,,,,,,,,,,,,,,,,,,,,,,,,/muse/elements/blink
2024-11-25 14:06:56.316,0.6681325367265543,0.09325200170901382,0.2122988589602782,1.721493763131133,0.262324480760696,-0.3689193995658505,-0.1822406697135067,1.222084570717454,0.2609897381269034,0.3004969157548724,0.2202826817046603,1.573362037290218,0.6207423404770084,0.5979098372243823,0.4383923842921442,0.7815586149973771,0.2058502319928566,0.4263498702453546,0.2975948400119389,0.3002401446306756,782.4908424908425,787.7289377289378,748.2417582417582,103.956043956044,537.9120879120879,-0.626099,0.188171,0.847961,-3.170166,4.568329,6.459961,1,2,1,1,4,50.000000
2024-11-25 14:06:56.816,0.6681325367265543,0.09325200170901382,0.2122988589602782,1.721493763131133,0.262324480760696,-0.3689193995658505,-0.1822406697135067,1.222084570717454,0.2609897381269034,0.3004969157548724,0.2202826817046603,1.573362037290218,0.6207423404770084,0.5979098372243823,0.4383923842921442,0.7815586149973771,0.2058502319928566,0.4263498702453546,0.2975948400119389,0.3002401446306756,865.8974358974359,884.0293040293041,859.4505494505495,979.92673992674,591.9047619047619,-0.499390,0.038818,0.696472,8.127289,-1.375732,9.660034,1,2,2,1,4,50.000000
2024-11-25 14:06:57.315,0.6681325367265543,0.09325200170901382,0.2122988589602782,1.721493763131133,0.262324480760696,-0.3689193995658505,-0.1822406697135067,1.222084570717454,0.2609897381269034,0.3004969157548724,0.2202826817046603,1.573362037290218,0.6207423404770084,0.5979098372243823,0.4383923842921442,0.7815586149973771,0.2058502319928566,0.4263498702453546,0.2975948400119389,0.3002401446306756,909.0109890109891,909.4139194139194,904.981684981685,1158.827838827839,749.8534798534798,-0.434326,0.135925,0.675903,-4.515991,-7.611389,2.512207,1,2,2,1,4,50.000000
2024-11-25 14:06:57.376,,,,,,,,,,,,,,,,,,,,,,,,,,,,,,,,,,,,,,/muse/elements/blink
2024-11-25 14:06:57.815,0.6681325367265543,0.09325200170901382,0.2122988589602782,1.721493763131133,0.262324480760696,-0.3689193995658505,-0.1822406697135067,1.222084570717454,0.2609897381269034,0.3004969157548724,0.2202826817046603,1.573362037290218,0.6207423404770084,0.5979098372243823,0.4383923842921442,0.7815586149973771,0.2058502319928566,0.4263498702453546,0.2975948400119389,0.3002401446306756,722.4542124542124,735.7509157509157,709.5604395604396,282.4542124542124,699.0842490842491,-0.483643,0.017273,0.765747,-2.482300,-10.527344,11.297455,1,2,2,1,4,50.000000
2024-11-25 14:06:58.208,,,,,,,,,,,,,,,,,,,,,,,,,,,,,,,,,,,,,,/muse/elements/blink
2024-11-25 14:06:58.316,0.6681325367265543,0.09325200170901382,0.2122988589602782,1.721493763131133,0.262324480760696,-0.3689193995658505,-0.1822406697135067,1.222084570717454,0.2609897381269034,0.3004969157548724,0.2202826817046603,1.573362037290218,0.6207423404770084,0.5979098372243823,0.4383923842921442,0.7815586149973771,0.2058502319928566,0.4263498702453546,0.2975948400119389,0.3002401446306756,685.7875457875458,736.5567765567765,749.047619047619,853.8095238095239,1063.333333333333,-0.695862,0.179565,0.894653,12.875061,3.611298,-27.559509,1,2,2,2,4,50.000000
2024-11-25 14:06:58.583,,,,,,,,,,,,,,,,,,,,,,,,,,,,,,,,,,,,,,/muse/elements/blink
2024-11-25 14:06:58.815,0.6681325367265543,0.09325200170901382,0.2122988589602782,1.721493763131133,0.262324480760696,-0.3689193995658505,-0.1822406697135067,1.222084570717454,0.2609897381269034,0.3004969157548724,0.2202826817046603,1.573362037290218,0.6207423404770084,0.5979098372243823,0.4383923842921442,0.7815586149973771,0.2058502319928566,0.4263498702453546,0.2975948400119389,0.3002401446306756,828.021978021978,819.5604395604396,816.7399267399268,605.2014652014652,759.92673992674,-0.773987,0.182617,1.080933,-3.102875,-5.622559,5.787048,1,2,1,2,4,50.000000
2024-11-25 14:06:59.197,,,,,,,,,,,,,,,,,,,,,,,,,,,,,,,,,,,,,,/muse/elements/blink
2024-11-25 14:06:59.315,0.6681325367265543,0.09325200170901382,0.2122988589602782,1.721493763131133,0.262324480760696,-0.3689193995658505,-0.1822406697135067,1.222084570717454,0.2609897381269034,0.3004969157548724,0.2202826817046603,1.573362037290218,0.6207423404770084,0.5979098372243823,0.4383923842921442,0.7815586149973771,0.2058502319928566,0.4263498702453546,0.2975948400119389,0.3002401446306756,807.0695970695971,829.2307692307693,830.8424908424909,0,831.6483516483516,-0.674927,0.014954,0.837341,-0.523376,-10.190887,3.431854,1,2,2,2,4,50.000000
2024-11-25 14:06:59.376,,,,,,,,,,,,,,,,,,,,,,,,,,,,,,,,,,,,,,/muse/elements/blink
2024-11-25 14:06:59.575,,,,,,,,,,,,,,,,,,,,,,,,,,,,,,,,,,,,,,/muse/elements/blink
2024-11-25 14:06:59.825,0.6681325367265543,0.09325200170901382,0.2122988589602782,1.721493763131133,0.262324480760696,-0.3689193995658505,-0.1822406697135067,1.222084570717454,0.2609897381269034,0.3004969157548724,0.2202826817046603,1.573362037290218,0.6207423404770084,0.5979098372243823,0.4383923842921442,0.7815586149973771,0.2058502319928566,0.4263498702453546,0.2975948400119389,0.3002401446306756,686.5934065934066,750.6593406593407,721.2454212454213,361.4285714285714,779.6703296703297,-0.535156,0.178589,0.753845,2.766418,-3.162689,-0.882263,1,2,2,2,4,50.000000
2024-11-25 14:06:59.993,,,,,,,,,,,,,,,,,,,,,,,,,,,,,,,,,,,,,,/muse/elements/blink
2024-11-25 14:07:00.316,0.6681325367265543,0.09325200170901382,0.2122988589602782,1.721493763131133,0.262324480760696,-0.3689193995658505,-0.1822406697135067,1.222084570717454,0.2609897381269034,0.3004969157548724,0.2202826817046603,1.573362037290218,0.6207423404770084,0.5979098372243823,0.4383923842921442,0.7815586149973771,0.2058502319928566,0.4263498702453546,0.2975948400119389,0.3002401446306756,871.5384615384615,857.032967032967,845.7509157509157,1019.81684981685,557.6556776556777,-0.489929,0.036743,0.664001,4.029999,-6.392670,7.603912,1,2,2,2,4,50.000000
2024-11-25 14:07:00.411,,,,,,,,,,,,,,,,,,,,,,,,,,,,,,,,,,,,,,/muse/elements/blink
2024-11-25 14:07:00.589,,,,,,,,,,,,,,,,,,,,,,,,,,,,,,,,,,,,,,/muse/elements/blink
2024-11-25 14:07:00.815,0.6681325367265543,0.09325200170901382,0.2122988589602782,1.721493763131133,0.262324480760696,-0.3689193995658505,-0.1822406697135067,1.222084570717454,0.2609897381269034,0.3004969157548724,0.2202826817046603,1.573362037290218,0.6207423404770084,0.5979098372243823,0.4383923842921442,0.7815586149973771,0.2058502319928566,0.4263498702453546,0.2975948400119389,0.3002401446306756,737.7655677655678,762.7472527472528,747.032967032967,778.4615384615385,602.7838827838827,-0.466492,0.154602,0.792175,1.233673,-19.731293,-2.960815,1,2,2,2,4,50.000000
2024-11-25 14:07:01.026,,,,,,,,,,,,,,,,,,,,,,,,,,,,,,,,,,,,,,/muse/elements/blink
2024-11-25 14:07:01.205,,,,,,,,,,,,,,,,,,,,,,,,,,,,,,,,,,,,,,/muse/elements/blink
2024-11-25 14:07:01.324,0.6681325367265543,0.09325200170901382,0.2122988589602782,1.721493763131133,0.262324480760696,-0.3689193995658505,-0.1822406697135067,1.222084570717454,0.2609897381269034,0.3004969157548724,0.2202826817046603,1.573362037290218,0.6207423404770084,0.5979098372243823,0.4383923842921442,0.7815586149973771,0.2058502319928566,0.4263498702453546,0.2975948400119389,0.3002401446306756,842.1245421245421,783.6996336996338,773.6263736263736,1627.032967032967,845.7509157509157,-0.695923,0.054749,1.045898,2.287903,2.871094,6.078644,1,2,2,2,4,50.000000
2024-11-25 14:07:01.646,,,,,,,,,,,,,,,,,,,,,,,,,,,,,,,,,,,,,,/muse/elements/blink
2024-11-25 14:07:01.816,0.6681325367265543,0.09325200170901382,0.2122988589602782,1.721493763131133,0.262324480760696,-0.3689193995658505,-0.1822406697135067,1.222084570717454,0.2609897381269034,0.3004969157548724,0.2202826817046603,1.573362037290218,0.6207423404770084,0.5979098372243823,0.4383923842921442,0.7815586149973771,0.2058502319928566,0.4263498702453546,0.2975948400119389,0.3002401446306756,836.4835164835165,778.8644688644689,743.0036630036631,102.3443223443224,715.6043956043957,-0.783142,0.095032,1.193970,7.947845,-1.181335,-10.190887,1,2,2,2,4,50.000000
2024-11-25 14:07:02.110,,,,,,,,,,,,,,,,,,,,,,,,,,,,,,,,,,,,,,/muse/elements/blink
2024-11-25 14:07:02.316,0.6681325367265543,0.09325200170901382,0.2122988589602782,1.721493763131133,0.262324480760696,-0.3689193995658505,-0.1822406697135067,1.222084570717454,0.2609897381269034,0.3004969157548724,0.2202826817046603,1.573362037290218,0.6207423404770084,0.5979098372243823,0.4383923842921442,0.7815586149973771,0.2058502319928566,0.4263498702453546,0.2975948400119389,0.3002401446306756,950.9157509157509,913.8461538461539,929.96336996337,1176.556776556777,1228.131868131868,-0.582214,0.202393,0.945251,1.951447,-12.927399,-0.328979,1,2,2,2,4,50.000000
2024-11-25 14:07:02.441,,,,,,,,,,,,,,,,,,,,,,,,,,,,,,,,,,,,,,/muse/elements/blink
2024-11-25 14:07:02.619,,,,,,,,,,,,,,,,,,,,,,,,,,,,,,,,,,,,,,/muse/elements/blink
2024-11-25 14:07:02.815,0.6681325367265543,0.09325200170901382,0.2122988589602782,1.721493763131133,0.262324480760696,-0.3689193995658505,-0.1822406697135067,1.222084570717454,0.2609897381269034,0.3004969157548724,0.2202826817046603,1.573362037290218,0.6207423404770084,0.5979098372243823,0.4383923842921442,0.7815586149973771,0.2058502319928566,0.4263498702453546,0.2975948400119389,0.3002401446306756,645.8974358974359,712.7838827838829,684.981684981685,0.8058608058608059,17.32600732600732,-0.531311,0.014282,0.839905,3.439331,-12.665710,4.605713,1,2,2,2,4,50.000000
2024-11-25 14:07:02.950,,,,,,,,,,,,,,,,,,,,,,,,,,,,,,,,,,,,,,/muse/elements/blink
2024-11-25 14:07:03.239,,,,,,,,,,,,,,,,,,,,,,,,,,,,,,,,,,,,,,/muse/elements/blink
2024-11-25 14:07:03.316,0.6681325367265543,0.09325200170901382,0.2122988589602782,1.721493763131133,0.262324480760696,-0.3689193995658505,-0.1822406697135067,1.222084570717454,0.2609897381269034,0.3004969157548724,0.2202826817046603,1.573362037290218,0.6207423404770084,0.5979098372243823,0.4383923842921442,0.7815586149973771,0.2058502319928566,0.4263498702453546,0.2975948400119389,0.3002401446306756,815.5311355311355,805.4578754578755,772.014652014652,308.2417582417582,382.7838827838828,-0.417297,0.129456,0.703308,0.680389,-1.652374,-2.347717,1,2,2,2,4,50.000000
2024-11-25 14:07:03.459,,,,,,,,,,,,,,,,,,,,,,,,,,,,,,,,,,,,,,/muse/elements/blink
2024-11-25 14:07:03.817,0.6681325367265543,0.09325200170901382,0.2122988589602782,1.721493763131133,0.262324480760696,-0.3689193995658505,-0.1822406697135067,1.222084570717454,0.2609897381269034,0.3004969157548724,0.2202826817046603,1.573362037290218,0.6207423404770084,0.5979098372243823,0.4383923842921442,0.7815586149973771,0.2058502319928566,0.4263498702453546,0.2975948400119389,0.3002401446306756,745.4212454212454,760.3296703296703,814.3223443223443,1019.010989010989,1273.260073260073,-0.429077,0.023682,0.728271,-1.577606,-4.800110,7.506714,1,2,2,2,4,50.000000
2024-11-25 14:07:04.163,,,,,,,,,,,,,,,,,,,,,,,,,,,,,,,,,,,,,,/muse/elements/blink
2024-11-25 14:07:04.316,0.6681325367265543,0.09325200170901382,0.2122988589602782,1.721493763131133,0.262324480760696,-0.3689193995658505,-0.1822406697135067,1.222084570717454,0.2609897381269034,0.3004969157548724,0.2202826817046603,1.573362037290218,0.6207423404770084,0.5979098372243823,0.4383923842921442,0.7815586149973771,0.2058502319928566,0.4263498702453546,0.2975948400119389,0.3002401446306756,1015.787545787546,782.0879120879121,776.0439560439561,1627.032967032967,1626.630036630037,-0.523621,0.236084,0.898560,4.673004,2.654266,0.328979,1,2,2,2,4,50.000000
2024-11-25 14:07:04.451,,,,,,,,,,,,,,,,,,,,,,,,,,,,,,,,,,,,,,/muse/elements/blink
2024-11-25 14:07:04.761,,,,,,,,,,,,,,,,,,,,,,,,,,,,,,,,,,,,,,/muse/elements/blink
2024-11-25 14:07:04.816,0.6681325367265543,0.09325200170901382,0.2122988589602782,1.721493763131133,0.262324480760696,-0.3689193995658505,-0.1822406697135067,1.222084570717454,0.2609897381269034,0.3004969157548724,0.2202826817046603,1.573362037290218,0.6207423404770084,0.5979098372243823,0.4383923842921442,0.7815586149973771,0.2058502319928566,0.4263498702453546,0.2975948400119389,0.3002401446306756,988.3882783882784,814.3223443223443,840.1098901098901,1618.571428571429,1066.959706959707,-0.542236,0.005615,1.033264,1.510315,1.278534,-8.830109,1,2,2,2,4,50.000000
2024-11-25 14:07:05.137,,,,,,,,,,,,,,,,,,,,,,,,,,,,,,,,,,,,,,/muse/elements/blink
2024-11-25 14:07:05.318,0.6681325367265543,0.09325200170901382,0.2122988589602782,1.721493763131133,0.262324480760696,-0.3689193995658505,-0.1822406697135067,1.222084570717454,0.2609897381269034,0.3004969157548724,0.2202826817046603,1.573362037290218,0.6207423404770084,0.5979098372243823,0.4383923842921442,0.7815586149973771,0.2058502319928566,0.4263498702453546,0.2975948400119389,0.3002401446306756,875.9706959706959,830.8424908424909,818.3516483516484,1611.721611721612,1315.567765567766,-0.664917,0.098877,1.081299,8.688049,1.682281,-12.217102,1,2,2,2,4,50.000000
2024-11-25 14:07:05.816,0.6681325367265543,0.09325200170901382,0.2122988589602782,1.721493763131133,0.262324480760696,-0.3689193995658505,-0.1822406697135067,1.222084570717454,0.2609897381269034,0.3004969157548724,0.2202826817046603,1.573362037290218,0.6207423404770084,0.5979098372243823,0.4383923842921442,0.7815586149973771,0.2058502319928566,0.4263498702453546,0.2975948400119389,0.3002401446306756,906.5934065934066,803.8461538461539,836.8864468864469,359.010989010989,0,-0.533508,0.158630,0.793518,3.544006,-2.287903,3.102875,1,2,2,2,4,50.000000
2024-11-25 14:07:05.888,,,,,,,,,,,,,,,,,,,,,,,,,,,,,,,,,,,,,,/muse/elements/blink
2024-11-25 14:07:06.266,,,,,,,,,,,,,,,,,,,,,,,,,,,,,,,,,,,,,,/muse/elements/blink
2024-11-25 14:07:06.315,0.6681325367265543,0.09325200170901382,0.2122988589602782,1.721493763131133,0.262324480760696,-0.3689193995658505,-0.1822406697135067,1.222084570717454,0.2609897381269034,0.3004969157548724,0.2202826817046603,1.573362037290218,0.6207423404770084,0.5979098372243823,0.4383923842921442,0.7815586149973771,0.2058502319928566,0.4263498702453546,0.2975948400119389,0.3002401446306756,848.1684981684982,882.4175824175825,837.6923076923077,0,0,-0.469238,0.023254,0.662537,1.734619,3.282318,2.497253,1,2,2,2,4,55.000000
2024-11-25 14:07:06.509,,,,,,,,,,,,,,,,,,,,,,,,,,,,,,,,,,,,,,/muse/elements/blink
2024-11-25 14:07:06.797,,,,,,,,,,,,,,,,,,,,,,,,,,,,,,,,,,,,,,/muse/elements/blink
2024-11-25 14:07:06.816,0.6681325367265543,0.09325200170901382,0.2122988589602782,1.721493763131133,0.262324480760696,-0.3689193995658505,-0.1822406697135067,1.222084570717454,0.2609897381269034,0.3004969157548724,0.2202826817046603,1.573362037290218,0.6207423404770084,0.5979098372243823,0.4383923842921442,0.7815586149973771,0.2058502319928566,0.4263498702453546,0.2975948400119389,0.3002401446306756,977.9120879120879,947.6923076923077,929.5604395604396,654.3589743589744,509.7069597069597,-0.400696,0.092773,0.655762,-2.332764,-3.686066,-2.041168,1,2,2,2,4,55.000000
2024-11-25 14:07:07.126,,,,,,,,,,,,,,,,,,,,,,,,,,,,,,,,,,,,,,/muse/elements/blink
2024-11-25 14:07:07.316,0.6681325367265543,0.09325200170901382,0.2122988589602782,1.721493763131133,0.262324480760696,-0.3689193995658505,-0.1822406697135067,1.222084570717454,0.2609897381269034,0.3004969157548724,0.2202826817046603,1.573362037290218,0.6207423404770084,0.5979098372243823,0.4383923842921442,0.7815586149973771,0.2058502319928566,0.4263498702453546,0.2975948400119389,0.3002401446306756,765.5677655677656,716.4102564102565,738.5714285714286,1429.194139194139,1325.238095238095,-0.403503,0.013062,0.688049,5.330963,0.029907,2.482300,1,2,2,2,4,55.000000
2024-11-25 14:07:07.325,,,,,,,,,,,,,,,,,,,,,,,,,,,,,,,,,,,,,,/muse/elements/blink
2024-11-25 14:07:07.613,,,,,,,,,,,,,,,,,,,,,,,,,,,,,,,,,,,,,,/muse/elements/blink
2024-11-25 14:07:07.815,0.6681325367265543,0.09325200170901382,0.2122988589602782,1.721493763131133,0.262324480760696,-0.3689193995658505,-0.1822406697135067,1.222084570717454,0.2609897381269034,0.3004969157548724,0.2202826817046603,1.573362037290218,0.6207423404770084,0.5979098372243823,0.4383923842921442,0.7815586149973771,0.2058502319928566,0.4263498702453546,0.2975948400119389,0.3002401446306756,887.2527472527473,847.3626373626374,851.7948717948718,1627.032967032967,1626.630036630037,-0.517456,0.185364,0.913574,9.891815,-4.665527,-8.665619,1,2,2,2,4,55.000000
2024-11-25 14:07:08.122,,,,,,,,,,,,,,,,,,,,,,,,,,,,,,,,,,,,,,/muse/elements/blink
2024-11-25 14:07:08.316,0.6681325367265543,0.09325200170901382,0.2122988589602782,1.721493763131133,0.262324480760696,-0.3689193995658505,-0.1822406697135067,1.222084570717454,0.2609897381269034,0.3004969157548724,0.2202826817046603,1.573362037290218,0.6207423404770084,0.5979098372243823,0.4383923842921442,0.7815586149973771,0.2058502319928566,0.4263498702453546,0.2975948400119389,0.3002401446306756,1053.260073260073,923.919413919414,947.2893772893773,1625.824175824176,1143.113553113553,-0.666138,0.101379,0.868286,4.269257,8.531036,-2.691650,1,2,2,2,4,55.000000
2024-11-25 14:07:08.717,,,,,,,,,,,,,,,,,,,,,,,,,,,,,,,,,,,,,,/muse/elements/blink
2024-11-25 14:07:08.816,0.6681325367265543,0.09325200170901382,0.2122988589602782,1.721493763131133,0.262324480760696,-0.3689193995658505,-0.1822406697135067,1.222084570717454,0.2609897381269034,0.3004969157548724,0.2202826817046603,1.573362037290218,0.6207423404770084,0.5979098372243823,0.4383923842921442,0.7815586149973771,0.2058502319928566,0.4263498702453546,0.2975948400119389,0.3002401446306756,875.1648351648352,849.7802197802198,858.6446886446887,1475.128205128205,1354.249084249084,-0.584656,0.054932,0.899597,7.506714,-7.641296,-10.317993,1,2,2,2,4,55.000000
2024-11-25 14:07:09.158,,,,,,,,,,,,,,,,,,,,,,,,,,,,,,,,,,,,,,/muse/elements/blink
2024-11-25 14:07:09.315,0.6681325367265543,0.09325200170901382,0.2122988589602782,1.721493763131133,0.262324480760696,-0.3689193995658505,-0.1822406697135067,1.222084570717454,0.2609897381269034,0.3004969157548724,0.2202826817046603,1.573362037290218,0.6207423404770084,0.5979098372243823,0.4383923842921442,0.7815586149973771,0.2058502319928566,0.4263498702453546,0.2975948400119389,0.3002401446306756,877.5824175824176,873.956043956044,810.2930402930403,809.4871794871796,151.9047619047619,-0.509583,0.179993,0.743896,-0.680389,4.897308,5.345917,1,2,2,2,4,55.000000
2024-11-25 14:07:09.754,,,,,,,,,,,,,,,,,,,,,,,,,,,,,,,,,,,,,,/muse/elements/blink
2024-11-25 14:07:09.816,0.6681325367265543,0.09325200170901382,0.2122988589602782,1.721493763131133,0.262324480760696,-0.3689193995658505,-0.1822406697135067,1.222084570717454,0.2609897381269034,0.3004969157548724,0.2202826817046603,1.573362037290218,0.6207423404770084,0.5979098372243823,0.4383923842921442,0.7815586149973771,0.2058502319928566,0.4263498702453546,0.2975948400119389,0.3002401446306756,736.1538461538462,743.4065934065934,755.8974358974359,0,325.1648351648352,-0.415466,0.057800,0.738220,1.876678,-10.265656,6.183319,1,2,2,2,4,55.000000
2024-11-25 14:07:10.038,,,,,,,,,,,,,,,,,,,,,,,,,,,,,,,,,,,,,,/muse/elements/blink
2024-11-25 14:07:10.316,0.6681325367265543,0.09325200170901382,0.2122988589602782,1.721493763131133,0.262324480760696,-0.3689193995658505,-0.1822406697135067,1.222084570717454,0.2609897381269034,0.3004969157548724,0.2202826817046603,1.573362037290218,0.6207423404770084,0.5979098372243823,0.4383923842921442,0.7815586149973771,0.2058502319928566,0.4263498702453546,0.2975948400119389,0.3002401446306756,799.0109890109891,823.992673992674,699.4871794871796,0,737.7655677655678,-0.375488,0.113831,0.692444,-6.168365,-4.508514,-2.743988,1,2,2,2,4,55.000000
2024-11-25 14:07:10.637,,,,,,,,,,,,,,,,,,,,,,,,,,,,,,,,,,,,,,/muse/elements/blink
2024-11-25 14:07:10.815,0.6681325367265543,0.09325200170901382,0.2122988589602782,1.721493763131133,0.262324480760696,-0.3689193995658505,-0.1822406697135067,1.222084570717454,0.2609897381269034,0.3004969157548724,0.2202826817046603,1.573362037290218,0.6207423404770084,0.5979098372243823,0.4383923842921442,0.7815586149973771,0.2058502319928566,0.4263498702453546,0.2975948400119389,0.3002401446306756,974.6886446886447,737.3626373626374,700.6959706959707,1627.032967032967,1626.630036630037,-0.455627,0.041870,0.906555,-0.239258,-3.955231,3.222504,1,2,2,2,4,55.000000
2024-11-25 14:07:11.076,,,,,,,,,,,,,,,,,,,,,,,,,,,,,,,,,,,,,,/muse/elements/blink
2024-11-25 14:07:11.315,0.6681325367265543,0.09325200170901382,0.2122988589602782,1.721493763131133,0.262324480760696,-0.3689193995658505,-0.1822406697135067,1.222084570717454,0.2609897381269034,0.3004969157548724,0.2202826817046603,1.573362037290218,0.6207423404770084,0.5979098372243823,0.4383923842921442,0.7815586149973771,0.2058502319928566,0.4263498702453546,0.2975948400119389,0.3002401446306756,1136.263736263736,833.2600732600733,908.6080586080586,1627.435897435897,1627.032967032967,-0.545593,0.213196,1.046448,0.164490,-0.082245,-0.014954,1,2,2,2,4,55.000000
2024-11-25 14:07:11.674,,,,,,,,,,,,,,,,,,,,,,,,,,,,,,,,,,,,,,/muse/elements/blink
2024-11-25 14:07:11.816,0.6681325367265543,0.09325200170901382,0.2122988589602782,1.721493763131133,0.262324480760696,-0.3689193995658505,-0.1822406697135067,1.222084570717454,0.2609897381269034,0.3004969157548724,0.2202826817046603,1.573362037290218,0.6207423404770084,0.5979098372243823,0.4383923842921442,0.7815586149973771,0.2058502319928566,0.4263498702453546,0.2975948400119389,0.3002401446306756,830.8424908424909,761.5384615384615,780.0732600732601,1627.435897435897,1626.630036630037,-0.616577,0.176880,0.995422,-15.275116,2.938385,37.070007,1,2,2,2,4,55.000000
2024-11-25 14:07:12.093,,,,,,,,,,,,,,,,,,,,,,,,,,,,,,,,,,,,,,/muse/elements/blink
2024-11-25 14:07:12.316,0.6681325367265543,0.09325200170901382,0.2122988589602782,1.721493763131133,0.262324480760696,-0.3689193995658505,-0.1822406697135067,1.222084570717454,0.2609897381269034,0.3004969157548724,0.2202826817046603,1.573362037290218,0.6207423404770084,0.5979098372243823,0.4383923842921442,0.7815586149973771,0.2058502319928566,0.4263498702453546,0.2975948400119389,0.3002401446306756,859.4505494505495,818.3516483516484,840.9157509157509,1023.443223443223,1115.311355311355,-0.549805,0.004517,0.869019,11.835785,-5.054321,-13.794708,1,2,1,2,4,55.000000
2024-11-25 14:07:12.623,,,,,,,,,,,,,,,,,,,,,,,,,,,,,,,,,,,,,,/muse/elements/blink
2024-11-25 14:07:12.815,0.6681325367265543,0.09325200170901382,0.2122988589602782,1.721493763131133,0.262324480760696,-0.3689193995658505,-0.1822406697135067,1.222084570717454,0.2609897381269034,0.3004969157548724,0.2202826817046603,1.573362037290218,0.6207423404770084,0.5979098372243823,0.4383923842921442,0.7815586149973771,0.2058502319928566,0.4263498702453546,0.2975948400119389,0.3002401446306756,736.5567765567765,760.7326007326008,811.0989010989011,0,19.34065934065934,-0.457214,0.149292,0.791138,13.099365,-1.375732,-14.953613,1,2,2,2,4,55.000000
2024-11-25 14:07:13.219,,,,,,,,,,,,,,,,,,,,,,,,,,,,,,,,,,,,,,/muse/elements/blink
2024-11-25 14:07:13.309,,,,,,,,,,,,,,,,,,,,,,,,,,,,,,,,,,,,,,/muse/elements/jaw_clench
2024-11-25 14:07:13.315,0.6681325367265543,0.09325200170901382,0.2122988589602782,1.721493763131133,0.262324480760696,-0.3689193995658505,-0.1822406697135067,1.222084570717454,0.2609897381269034,0.3004969157548724,0.2202826817046603,1.573362037290218,0.6207423404770084,0.5979098372243823,0.4383923842921442,0.7815586149973771,0.2058502319928566,0.4263498702453546,0.2975948400119389,0.3002401446306756,648.7179487179487,701.5018315018315,658.3882783882784,0,31.42857142857143,-0.485107,0.010864,0.791626,-3.484192,-6.631927,15.230255,1,2,2,2,4,55.000000
2024-11-25 14:07:13.420,,,,,,,,,,,,,,,,,,,,,,,,,,,,,,,,,,,,,,/muse/elements/blink
2024-11-25 14:07:13.815,0.6681325367265543,0.09325200170901382,0.2122988589602782,1.721493763131133,0.262324480760696,-0.3689193995658505,-0.1822406697135067,1.222084570717454,0.2609897381269034,0.3004969157548724,0.2202826817046603,1.573362037290218,0.6207423404770084,0.5979098372243823,0.4383923842921442,0.7815586149973771,0.2058502319928566,0.4263498702453546,0.2975948400119389,0.3002401446306756,778.4615384615385,850.5860805860806,813.919413919414,1551.282051282051,1172.527472527473,-0.395081,0.100891,0.709656,6.213226,-0.433655,-11.028290,1,2,2,2,4,55.000000
2024-11-25 14:07:13.839,,,,,,,,,,,,,,,,,,,,,,,,,,,,,,,,,,,,,,/muse/elements/blink
2024-11-25 14:07:14.315,0.6681325367265543,0.09325200170901382,0.2122988589602782,1.721493763131133,0.262324480760696,-0.3689193995658505,-0.1822406697135067,1.222084570717454,0.2609897381269034,0.3004969157548724,0.2202826817046603,1.573362037290218,0.6207423404770084,0.5979098372243823,0.4383923842921442,0.7815586149973771,0.2058502319928566,0.4263498702453546,0.2975948400119389,0.3002401446306756,611.2454212454213,676.9230769230769,696.6666666666667,423.4798534798535,1135.054945054945,-0.312622,-0.001648,0.739868,5.158997,3.162689,1.121521,1,2,2,2,4,55.000000
2024-11-25 14:07:14.438,,,,,,,,,,,,,,,,,,,,,,,,,,,,,,,,,,,,,,/muse/elements/blink
2024-11-25 14:07:14.822,0.6681325367265543,0.09325200170901382,0.2122988589602782,1.721493763131133,0.262324480760696,-0.3689193995658505,-0.1822406697135067,1.222084570717454,0.2609897381269034,0.3004969157548724,0.2202826817046603,1.573362037290218,0.6207423404770084,0.5979098372243823,0.4383923842921442,0.7815586149973771,0.2058502319928566,0.4263498702453546,0.2975948400119389,0.3002401446306756,981.5384615384615,837.6923076923077,799.4139194139194,1623.406593406593,1626.630036630037,-0.429688,0.210083,0.992126,6.130981,-8.441315,5.712280,1,2,2,2,4,55.000000
2024-11-25 14:07:14.904,,,,,,,,,,,,,,,,,,,,,,,,,,,,,,,,,,,,,,/muse/elements/blink
2024-11-25 14:07:15.147,,,,,,,,,,,,,,,,,,,,,,,,,,,,,,,,,,,,,,/muse/elements/blink
2024-11-25 14:07:15.316,0.6681325367265543,0.09325200170901382,0.2122988589602782,1.721493763131133,0.262324480760696,-0.3689193995658505,-0.1822406697135067,1.222084570717454,0.2609897381269034,0.3004969157548724,0.2202826817046603,1.573362037290218,0.6207423404770084,0.5979098372243823,0.4383923842921442,0.7815586149973771,0.2058502319928566,0.4263498702453546,0.2975948400119389,0.3002401446306756,875.1648351648352,805.4578754578755,834.8717948717949,843.3333333333334,53.18681318681319,-0.605896,0.100952,1.068604,0.276642,8.239441,3.416901,1,2,2,2,4,55.000000
2024-11-25 14:07:15.815,0.6681325367265543,0.09325200170901382,0.2122988589602782,1.721493763131133,0.262324480760696,-0.3689193995658505,-0.1822406697135067,1.222084570717454,0.2609897381269034,0.3004969157548724,0.2202826817046603,1.573362037290218,0.6207423404770084,0.5979098372243823,0.4383923842921442,0.7815586149973771,0.2058502319928566,0.4263498702453546,0.2975948400119389,0.3002401446306756,945.6776556776557,796.5934065934066,836.0805860805862,1627.032967032967,1626.630036630037,-0.700317,0.049683,1.179810,1.600037,-2.003784,-2.026215,1,2,2,2,4,55.000000
2024-11-25 14:07:15.832,,,,,,,,,,,,,,,,,,,,,,,,,,,,,,,,,,,,,,/muse/elements/blink
2024-11-25 14:07:16.031,,,,,,,,,,,,,,,,,,,,,,,,,,,,,,,,,,,,,,/muse/elements/blink
2024-11-25 14:07:16.315,0.6681325367265543,0.09325200170901382,0.2122988589602782,1.721493763131133,0.262324480760696,-0.3689193995658505,-0.1822406697135067,1.222084570717454,0.2609897381269034,0.3004969157548724,0.2202826817046603,1.573362037290218,0.6207423404770084,0.5979098372243823,0.4383923842921442,0.7815586149973771,0.2058502319928566,0.4263498702453546,0.2975948400119389,0.3002401446306756,775.2380952380953,750.2564102564103,760.3296703296703,374.3223443223443,562.4908424908425,-0.587585,0.217163,0.952148,-1.009369,-2.437439,11.043243,1,2,2,2,4,55.000000
2024-11-25 14:07:16.816,0.6681325367265543,0.09325200170901382,0.2122988589602782,1.721493763131133,0.262324480760696,-0.3689193995658505,-0.1822406697135067,1.222084570717454,0.2609897381269034,0.3004969157548724,0.2202826817046603,1.573362037290218,0.6207423404770084,0.5979098372243823,0.4383923842921442,0.7815586149973771,0.2058502319928566,0.4263498702453546,0.2975948400119389,0.3002401446306756,759.92673992674,794.981684981685,766.3736263736264,0,0,-0.460327,0.024902,0.708618,7.379608,-4.396362,4.605713,1,2,2,2,4,50.000000
2024-11-25 14:07:16.958,,,,,,,,,,,,,,,,,,,,,,,,,,,,,,,,,,,,,,/muse/elements/blink
2024-11-25 14:07:17.246,,,,,,,,,,,,,,,,,,,,,,,,,,,,,,,,,,,,,,/muse/elements/blink
2024-11-25 14:07:17.315,0.6681325367265543,0.09325200170901382,0.2122988589602782,1.721493763131133,0.262324480760696,-0.3689193995658505,-0.1822406697135067,1.222084570717454,0.2609897381269034,0.3004969157548724,0.2202826817046603,1.573362037290218,0.6207423404770084,0.5979098372243823,0.4383923842921442,0.7815586149973771,0.2058502319928566,0.4263498702453546,0.2975948400119389,0.3002401446306756,763.5531135531136,801.025641025641,703.5164835164835,333.6263736263737,42.30769230769231,-0.419800,0.131714,0.687134,-0.164490,1.958923,-3.529053,1,2,2,2,4,50.000000
2024-11-25 14:07:17.335,,,,,,,,,,,,,,,,,,,,,,,,,,,,,,,,,,,,,,/muse/elements/jaw_clench
2024-11-25 14:07:17.579,,,,,,,,,,,,,,,,,,,,,,,,,,,,,,,,,,,,,,/muse/elements/blink
2024-11-25 14:07:17.816,0.6681325367265543,0.09325200170901382,0.2122988589602782,1.721493763131133,0.262324480760696,-0.3689193995658505,-0.1822406697135067,1.222084570717454,0.2609897381269034,0.3004969157548724,0.2202826817046603,1.573362037290218,0.6207423404770084,0.5979098372243823,0.4383923842921442,0.7815586149973771,0.2058502319928566,0.4263498702453546,0.2975948400119389,0.3002401446306756,680.952380952381,757.1062271062272,773.6263736263736,66.08058608058609,768.7912087912088,-0.442383,-0.003784,0.729431,0.171967,-12.934875,3.222504,1,2,2,2,4,50.000000
2024-11-25 14:07:17.867,,,,,,,,,,,,,,,,,,,,,,,,,,,,,,,,,,,,,,/muse/elements/blink
2024-11-25 14:07:18.316,0.6681325367265543,0.09325200170901382,0.2122988589602782,1.721493763131133,0.262324480760696,-0.3689193995658505,-0.1822406697135067,1.222084570717454,0.2609897381269034,0.3004969157548724,0.2202826817046603,1.573362037290218,0.6207423404770084,0.5979098372243823,0.4383923842921442,0.7815586149973771,0.2058502319928566,0.4263498702453546,0.2975948400119389,0.3002401446306756,790.1465201465202,760.3296703296703,705.5311355311355,953.7362637362637,1626.630036630037,-0.479126,0.243347,1.028564,-3.484192,-14.168549,-2.990723,1,2,2,2,4,50.000000
2024-11-25 14:07:18.574,,,,,,,,,,,,,,,,,,,,,,,,,,,,,,,,,,,,,,/muse/elements/blink
2024-11-25 14:07:18.816,0.6681325367265543,0.09325200170901382,0.2122988589602782,1.721493763131133,0.262324480760696,-0.3689193995658505,-0.1822406697135067,1.222084570717454,0.2609897381269034,0.3004969157548724,0.2202826817046603,1.573362037290218,0.6207423404770084,0.5979098372243823,0.4383923842921442,0.7815586149973771,0.2058502319928566,0.4263498702453546,0.2975948400119389,0.3002401446306756,1135.860805860806,849.3772893772895,874.7619047619048,1627.032967032967,1185.421245421245,-0.541382,0.047607,1.013000,5.562744,8.755341,-3.132782,1,2,2,2,4,50.000000
2024-11-25 14:07:19.084,,,,,,,,,,,,,,,,,,,,,,,,,,,,,,,,,,,,,,/muse/elements/blink
2024-11-25 14:07:19.316,0.6681325367265543,0.09325200170901382,0.2122988589602782,1.721493763131133,0.262324480760696,-0.3689193995658505,-0.1822406697135067,1.222084570717454,0.2609897381269034,0.3004969157548724,0.2202826817046603,1.573362037290218,0.6207423404770084,0.5979098372243823,0.4383923842921442,0.7815586149973771,0.2058502319928566,0.4263498702453546,0.2975948400119389,0.3002401446306756,832.8571428571429,741.7948717948718,763.5531135531136,1207.179487179487,1341.355311355311,-0.580811,0.099854,1.032288,9.181519,-7.043152,-10.609589,1,2,2,2,4,50.000000
2024-11-25 14:07:19.503,,,,,,,,,,,,,,,,,,,,,,,,,,,,,,,,,,,,,,/muse/elements/blink
2024-11-25 14:07:19.815,0.6681325367265543,0.09325200170901382,0.2122988589602782,1.721493763131133,0.262324480760696,-0.3689193995658505,-0.1822406697135067,1.222084570717454,0.2609897381269034,0.3004969157548724,0.2202826817046603,1.573362037290218,0.6207423404770084,0.5979098372243823,0.4383923842921442,0.7815586149973771,0.2058502319928566,0.4263498702453546,0.2975948400119389,0.3002401446306756,949.3040293040293,866.3003663003664,863.0769230769231,1102.820512820513,943.6630036630037,-0.572876,0.167114,0.938965,11.424561,1.383209,10.826416,1,2,2,2,4,50.000000
2024-11-25 14:07:20.316,0.6681325367265543,0.09325200170901382,0.2122988589602782,1.721493763131133,0.262324480760696,-0.3689193995658505,-0.1822406697135067,1.222084570717454,0.2609897381269034,0.3004969157548724,0.2202826817046603,1.573362037290218,0.6207423404770084,0.5979098372243823,0.4383923842921442,0.7815586149973771,0.2058502319928566,0.4263498702453546,0.2975948400119389,0.3002401446306756,634.6153846153846,691.4285714285714,687.8021978021978,0,62.85714285714286,-0.482849,0.051208,0.762268,-3.297272,-1.435547,10.833893,1,2,2,2,4,50.000000
2024-11-25 14:07:20.540,,,,,,,,,,,,,,,,,,,,,,,,,,,,,,,,,,,,,,/muse/elements/blink
2024-11-25 14:07:20.815,0.6681325367265543,0.09325200170901382,0.2122988589602782,1.721493763131133,0.262324480760696,-0.3689193995658505,-0.1822406697135067,1.222084570717454,0.2609897381269034,0.3004969157548724,0.2202826817046603,1.573362037290218,0.6207423404770084,0.5979098372243823,0.4383923842921442,0.7815586149973771,0.2058502319928566,0.4263498702453546,0.2975948400119389,0.3002401446306756,737.7655677655678,775.6410256410256,710.7692307692308,1251.501831501831,1419.52380952381,-0.411316,0.090942,0.729492,1.323395,-2.781372,-10.699310,1,2,2,2,4,50.000000
2024-11-25 14:07:21.139,,,,,,,,,,,,,,,,,,,,,,,,,,,,,,,,,,,,,,/muse/elements/blink
2024-11-25 14:07:21.316,0.6681325367265543,0.09325200170901382,0.2122988589602782,1.721493763131133,0.262324480760696,-0.3689193995658505,-0.1822406697135067,1.222084570717454,0.2609897381269034,0.3004969157548724,0.2202826817046603,1.573362037290218,0.6207423404770084,0.5979098372243823,0.4383923842921442,0.7815586149973771,0.2058502319928566,0.4263498702453546,0.2975948400119389,0.3002401446306756,817.1428571428571,770,800.6227106227107,1627.032967032967,1626.630036630037,-0.515442,0.007935,0.975830,2.624359,-5.772095,-6.519775,1,2,2,2,4,50.000000
2024-11-25 14:07:21.339,,,,,,,,,,,,,,,,,,,,,,,,,,,,,,,,,,,,,,/muse/elements/blink
2024-11-25 14:07:21.604,,,,,,,,,,,,,,,,,,,,,,,,,,,,,,,,,,,,,,/muse/elements/blink
2024-11-25 14:07:21.815,0.6681325367265543,0.09325200170901382,0.2122988589602782,1.721493763131133,0.262324480760696,-0.3689193995658505,-0.1822406697135067,1.222084570717454,0.2609897381269034,0.3004969157548724,0.2202826817046603,1.573362037290218,0.6207423404770084,0.5979098372243823,0.4383923842921442,0.7815586149973771,0.2058502319928566,0.4263498702453546,0.2975948400119389,0.3002401446306756,979.92673992674,777.6556776556777,746.2271062271062,1627.435897435897,1627.838827838828,-0.506165,0.188843,0.970581,-5.495453,2.482300,10.018921,1,2,2,1,4,50.000000
2024-11-25 14:07:22.315,0.6681325367265543,0.09325200170901382,0.2122988589602782,1.721493763131133,0.262324480760696,-0.3689193995658505,-0.1822406697135067,1.222084570717454,0.2609897381269034,0.3004969157548724,0.2202826817046603,1.573362037290218,0.6207423404770084,0.5979098372243823,0.4383923842921442,0.7815586149973771,0.2058502319928566,0.4263498702453546,0.2975948400119389,0.3002401446306756,855.4212454212454,751.4652014652015,782.893772893773,1627.032967032967,1626.630036630037,-0.494141,0.091675,0.852661,7.888031,1.211243,-10.018921,1,2,1,1,4,50.000000
2024-11-25 14:07:22.462,,,,,,,,,,,,,,,,,,,,,,,,,,,,,,,,,,,,,,/muse/elements/blink
2024-11-25 14:07:22.640,,,,,,,,,,,,,,,,,,,,,,,,,,,,,,,,,,,,,,/muse/elements/blink
2024-11-25 14:07:22.815,0.6681325367265543,0.09325200170901382,0.2122988589602782,1.721493763131133,0.262324480760696,-0.3689193995658505,-0.1822406697135067,1.222084570717454,0.2609897381269034,0.3004969157548724,0.2202826817046603,1.573362037290218,0.6207423404770084,0.5979098372243823,0.4383923842921442,0.7815586149973771,0.2058502319928566,0.4263498702453546,0.2975948400119389,0.3002401446306756,785.7142857142858,763.956043956044,799.0109890109891,258.2783882783883,626.5567765567765,-0.618408,-0.017212,0.962463,8.045044,3.970184,-17.278900,1,2,2,2,4,50.000000
2024-11-25 14:07:22.971,,,,,,,,,,,,,,,,,,,,,,,,,,,,,,,,,,,,,,/muse/elements/blink
2024-11-25 14:07:23.170,,,,,,,,,,,,,,,,,,,,,,,,,,,,,,,,,,,,,,/muse/elements/blink
2024-11-25 14:07:23.315,0.6681325367265543,0.09325200170901382,0.2122988589602782,1.721493763131133,0.262324480760696,-0.3689193995658505,-0.1822406697135067,1.222084570717454,0.2609897381269034,0.3004969157548724,0.2202826817046603,1.573362037290218,0.6207423404770084,0.5979098372243823,0.4383923842921442,0.7815586149973771,0.2058502319928566,0.4263498702453546,0.2975948400119389,0.3002401446306756,736.959706959707,718.4249084249085,727.2893772893773,605.6043956043957,390.4395604395605,-0.502686,0.186096,0.925537,8.860016,-6.056213,1.405640,1,2,2,2,4,50.000000
2024-11-25 14:07:23.437,,,,,,,,,,,,,,,,,,,,,,,,,,,,,,,,,,,,,,/muse/elements/blink
2024-11-25 14:07:23.821,0.6681325367265543,0.09325200170901382,0.2122988589602782,1.721493763131133,0.262324480760696,-0.3689193995658505,-0.1822406697135067,1.222084570717454,0.2609897381269034,0.3004969157548724,0.2202826817046603,1.573362037290218,0.6207423404770084,0.5979098372243823,0.4383923842921442,0.7815586149973771,0.2058502319928566,0.4263498702453546,0.2975948400119389,0.3002401446306756,652.3443223443223,709.9633699633699,671.6849816849817,0,0,-0.461121,0.005371,0.807983,-2.527161,-7.387085,9.017029,1,2,2,2,4,50.000000
2024-11-25 14:07:24.315,0.6681325367265543,0.09325200170901382,0.2122988589602782,1.721493763131133,0.262324480760696,-0.3689193995658505,-0.1822406697135067,1.222084570717454,0.2609897381269034,0.3004969157548724,0.2202826817046603,1.573362037290218,0.6207423404770084,0.5979098372243823,0.4383923842921442,0.7815586149973771,0.2058502319928566,0.4263498702453546,0.2975948400119389,0.3002401446306756,795.3846153846154,762.7472527472528,792.967032967033,872.3443223443223,760.3296703296703,-0.298401,0.076721,0.811523,-6.340332,-1.248627,7.611389,1,2,2,2,4,50.000000
2024-11-25 14:07:24.475,,,,,,,,,,,,,,,,,,,,,,,,,,,,,,,,,,,,,,/muse/elements/blink
2024-11-25 14:07:24.652,,,,,,,,,,,,,,,,,,,,,,,,,,,,,,,,,,,,,,/muse/elements/blink
2024-11-25 14:07:24.787,,,,,,,,,,,,,,,,,,,,,,,,,,,,,,,,,,,,,,/muse/elements/jaw_clench
2024-11-25 14:07:24.815,0.6681325367265543,0.09325200170901382,0.2122988589602782,1.721493763131133,0.262324480760696,-0.3689193995658505,-0.1822406697135067,1.222084570717454,0.2609897381269034,0.3004969157548724,0.2202826817046603,1.573362037290218,0.6207423404770084,0.5979098372243823,0.4383923842921442,0.7815586149973771,0.2058502319928566,0.4263498702453546,0.2975948400119389,0.3002401446306756,306.2271062271062,1189.047619047619,770.4029304029305,0,0,-0.329285,-0.122925,0.961243,12.733002,-38.273773,10.856323,1,2,2,2,4,50.000000
2024-11-25 14:07:25.315,0.6681325367265543,0.09325200170901382,0.2122988589602782,1.721493763131133,0.262324480760696,-0.3689193995658505,-0.1822406697135067,1.222084570717454,0.2609897381269034,0.3004969157548724,0.2202826817046603,1.573362037290218,0.6207423404770084,0.5979098372243823,0.4383923842921442,0.7815586149973771,0.2058502319928566,0.4263498702453546,0.2975948400119389,0.3002401446306756,730.5128205128206,795.7875457875458,790.952380952381,1177.362637362637,1631.062271062271,-0.206055,0.098389,0.928345,2.856140,0.209351,-4.231873,1,2,2,2,4,50.000000
2024-11-25 14:07:25.492,,,,,,,,,,,,,,,,,,,,,,,,,,,,,,,,,,,,,,/muse/elements/blink
2024-11-25 14:07:25.815,0.6681325367265543,0.09325200170901382,0.2122988589602782,1.721493763131133,0.262324480760696,-0.3689193995658505,-0.1822406697135067,1.222084570717454,0.2609897381269034,0.3004969157548724,0.2202826817046603,1.573362037290218,0.6207423404770084,0.5979098372243823,0.4383923842921442,0.7815586149973771,0.2058502319928566,0.4263498702453546,0.2975948400119389,0.3002401446306756,886.0439560439561,810.2930402930403,790.1465201465202,1000.07326007326,1201.135531135531,-0.237671,-0.040039,0.957153,0.411224,-5.323486,-0.029907,1,4,2,2,4,50.000000
2024-11-25 14:07:25.869,,,,,,,,,,,,,,,,,,,,,,,,,,,,,,,,,,,,,,/muse/elements/blink
2024-11-25 14:07:26.113,,,,,,,,,,,,,,,,,,,,,,,,,,,,,,,,,,,,,,/muse/elements/blink
2024-11-25 14:07:26.315,0.6681325367265543,0.09325200170901382,0.2122988589602782,1.721493763131133,0.262324480760696,-0.3689193995658505,-0.1822406697135067,1.222084570717454,0.2609897381269034,0.3004969157548724,0.2202826817046603,1.573362037290218,0.6207423404770084,0.5979098372243823,0.4383923842921442,0.7815586149973771,0.2058502319928566,0.4263498702453546,0.2975948400119389,0.3002401446306756,765.5677655677656,743.8095238095239,753.8827838827839,483.1135531135531,1120.549450549451,-0.240540,0.151184,0.994202,0.732727,11.723633,17.525635,1,2,2,2,4,50.000000
2024-11-25 14:07:26.815,0.6681325367265543,0.09325200170901382,0.2122988589602782,1.721493763131133,0.262324480760696,-0.3689193995658505,-0.1822406697135067,1.222084570717454,0.2609897381269034,0.3004969157548724,0.2202826817046603,1.573362037290218,0.6207423404770084,0.5979098372243823,0.4383923842921442,0.7815586149973771,0.2058502319928566,0.4263498702453546,0.2975948400119389,0.3002401446306756,847.3626373626374,885.2380952380953,734.1391941391942,520.5860805860806,323.5531135531136,-0.292419,0.071045,0.971069,-6.497345,1.420593,27.133331,1,2,1,2,4,55.000000
2024-11-25 14:07:27.315,0.6681325367265543,0.09325200170901382,0.2122988589602782,1.721493763131133,0.262324480760696,-0.3689193995658505,-0.1822406697135067,1.222084570717454,0.2609897381269034,0.3004969157548724,0.2202826817046603,1.573362037290218,0.6207423404770084,0.5979098372243823,0.4383923842921442,0.7815586149973771,0.2058502319928566,0.4263498702453546,0.2975948400119389,0.3002401446306756,709.9633699633699,770.4029304029305,741.7948717948718,273.992673992674,558.4615384615385,-0.299255,0.080505,0.975586,3.850555,2.018738,-0.411224,1,2,1,1,4,55.000000
2024-11-25 14:07:27.615,,,,,,,,,,,,,,,,,,,,,,,,,,,,,,,,,,,,,,/muse/elements/blink
2024-11-25 14:07:27.815,0.6681325367265543,0.09325200170901382,0.2122988589602782,1.721493763131133,0.262324480760696,-0.3689193995658505,-0.1822406697135067,1.222084570717454,0.2609897381269034,0.3004969157548724,0.2202826817046603,1.573362037290218,0.6207423404770084,0.5979098372243823,0.4383923842921442,0.7815586149973771,0.2058502319928566,0.4263498702453546,0.2975948400119389,0.3002401446306756,780.4761904761905,771.2087912087912,760.3296703296703,0,855.4212454212454,-0.290039,0.086487,0.968079,3.910370,0.134583,-1.667328,1,2,1,1,4,55.000000
2024-11-25 14:07:28.316,0.6681325367265543,0.09325200170901382,0.2122988589602782,1.721493763131133,0.262324480760696,-0.3689193995658505,-0.1822406697135067,1.222084570717454,0.2609897381269034,0.3004969157548724,0.2202826817046603,1.573362037290218,0.6207423404770084,0.5979098372243823,0.4383923842921442,0.7815586149973771,0.2058502319928566,0.4263498702453546,0.2975948400119389,0.3002401446306756,891.6849816849817,792.967032967033,784.5054945054945,1440.476190476191,1155.201465201465,-0.335571,0.076538,0.948181,3.222504,-2.736511,-4.403839,1,2,1,1,4,55.000000
2024-11-25 14:07:28.321,,,,,,,,,,,,,,,,,,,,,,,,,,,,,,,,,,,,,,/muse/elements/blink
2024-11-25 14:07:28.815,0.6681325367265543,0.09325200170901382,0.2122988589602782,1.721493763131133,0.262324480760696,-0.3689193995658505,-0.1822406697135067,1.222084570717454,0.2609897381269034,0.3004969157548724,0.2202826817046603,1.573362037290218,0.6207423404770084,0.5979098372243823,0.4383923842921442,0.7815586149973771,0.2058502319928566,0.4263498702453546,0.2975948400119389,0.3002401446306756,761.1355311355312,782.4908424908425,780.8791208791209,635.8241758241759,787.3260073260074,-0.320435,0.071472,0.961365,5.869293,0.456085,-7.686157,1,2,1,4,2,55.000000
2024-11-25 14:07:29.315,0.6681325367265543,0.09325200170901382,0.2122988589602782,1.721493763131133,0.262324480760696,-0.3689193995658505,-0.1822406697135067,1.222084570717454,0.2609897381269034,0.3004969157548724,0.2202826817046603,1.573362037290218,0.6207423404770084,0.5979098372243823,0.4383923842921442,0.7815586149973771,0.2058502319928566,0.4263498702453546,0.2975948400119389,0.3002401446306756,852.1978021978023,818.3516483516484,830.0366300366301,925.1282051282052,620.1098901098901,-0.338074,0.079163,0.955688,8.134766,0.029907,-21.548157,1,2,1,1,2,55.000000
2024-11-25 14:07:29.450,,,,,,,,,,,,,,,,,,,,,,,,,,,,,,,,,,,,,,/muse/elements/blink
2024-11-25 14:07:29.816,0.6681325367265543,0.09325200170901382,0.2122988589602782,1.721493763131133,0.262324480760696,-0.3689193995658505,-0.1822406697135067,1.222084570717454,0.2609897381269034,0.3004969157548724,0.2202826817046603,1.573362037290218,0.6207423404770084,0.5979098372243823,0.4383923842921442,0.7815586149973771,0.2058502319928566,0.4263498702453546,0.2975948400119389,0.3002401446306756,778.0586080586081,781.2820512820513,756.3003663003664,701.0989010989011,601.1721611721612,-0.326660,0.084290,0.962341,4.082336,-3.671112,-5.099182,1,2,1,1,2,55.000000
2024-11-25 14:07:30.317,0.6681325367265543,0.09325200170901382,0.2122988589602782,1.721493763131133,0.262324480760696,-0.3689193995658505,-0.1822406697135067,1.222084570717454,0.2609897381269034,0.3004969157548724,0.2202826817046603,1.573362037290218,0.6207423404770084,0.5979098372243823,0.4383923842921442,0.7815586149973771,0.2058502319928566,0.4263498702453546,0.2975948400119389,0.3002401446306756,808.2783882783883,789.7435897435897,779.6703296703297,875.1648351648352,850.989010989011,-0.299500,0.077881,0.970581,1.136475,-2.190704,-1.682281,1,2,1,1,2,55.000000
2024-11-25 14:07:30.663,,,,,,,,,,,,,,,,,,,,,,,,,,,,,,,,,,,,,,/muse/elements/blink
2024-11-25 14:07:30.815,0.6681325367265543,0.09325200170901382,0.2122988589602782,1.721493763131133,0.262324480760696,-0.3689193995658505,-0.1822406697135067,1.222084570717454,0.2609897381269034,0.3004969157548724,0.2202826817046603,1.573362037290218,0.6207423404770084,0.5979098372243823,0.4383923842921442,0.7815586149973771,0.2058502319928566,0.4263498702453546,0.2975948400119389,0.3002401446306756,821.1721611721612,790.952380952381,766.7765567765568,780.4761904761905,854.2124542124542,-0.330872,0.072388,0.956421,2.856140,-0.852356,2.048645,1,2,1,1,2,55.000000
2024-11-25 14:07:31.315,0.6681325367265543,0.849981941155153,0.8097746520819249,1.721493763131133,0.262324480760696,0.7614214238161089,0.758865549480312,1.222084570717454,0.2609897381269034,0.7205068571647892,0.9755569309158664,1.573362037290218,0.6207423404770084,0.6622438087125021,0.9389288734584247,0.7815586149973771,0.2058502319928566,0.2584559616903473,0.7044579584386061,0.3002401446306756,800.2197802197802,796.5934065934066,775.2380952380953,554.4322344322344,804.6520146520147,-0.354675,0.098511,0.945312,2.848663,-2.011261,3.439331,1,2,1,1,2,55.000000
2024-11-25 14:07:31.816,0.6681325367265543,0.9108810526293711,0.7167224513840704,1.721493763131133,0.262324480760696,0.9071286725844314,0.671686051481459,1.222084570717454,0.2609897381269034,0.9856395534621729,0.9755569309158664,1.573362037290218,0.6207423404770084,0.8154037565841874,0.9712495412179186,0.7815586149973771,0.2058502319928566,0.3470916214914016,0.8139024608503752,0.3002401446306756,810.6959706959707,794.1758241758242,795.7875457875458,760.7326007326008,730.5128205128206,-0.347229,0.079285,0.952698,3.611298,-0.829926,-6.452484,1,2,1,1,2,55.000000
2024-11-25 14:07:32.315,1.238923350658676,0.9305789703351676,0.7329185844609029,1.721493763131133,1.468426461810049,0.9360440698749086,0.6829362961614448,1.222084570717454,1.091132471076067,1.045628188026947,0.9755569309158664,1.573362037290218,1.058585526016115,0.9349363315673561,0.9510080244279121,0.7815586149973771,0.588386313099548,0.4971973060270651,0.7867918740138041,0.3002401446306756,794.5787545787546,805.4578754578755,790.1465201465202,202.2710622710623,756.3003663003664,-0.376526,0.073792,0.945923,1.166382,-1.188812,0.919647,1,1,1,1,1,55.000000
2024-11-25 14:07:32.815,1.35873670787794,1.07719581562766,0.7402359624888161,1.721493763131133,1.384709558632862,0.8790284603427599,0.639138928551533,1.222084570717454,1.091132471076067,1.081475825771654,0.8718069342528535,1.573362037290218,0.9948300374801871,0.9601672543166202,0.9627155496806776,0.7815586149973771,0.6080539913762879,0.5802819755598574,0.8032487540171191,0.3002401446306756,804.2490842490843,791.7582417582418,783.6996336996338,1197.912087912088,813.919413919414,-0.379883,0.079834,0.938477,2.714081,-2.041168,-1.345825,1,1,1,1,2,55.000000
