TimeStamp,Delta_TP9,Delta_AF7,Delta_AF8,Delta_TP10,Theta_TP9,Theta_AF7,Theta_AF8,Theta_TP10,Alpha_TP9,Alpha_AF7,Alpha_AF8,Alpha_TP10,Beta_TP9,Beta_AF7,Beta_AF8,Beta_TP10,Gamma_TP9,Gamma_AF7,Gamma_AF8,Gamma_TP10,RAW_TP9,RAW_AF7,RAW_AF8,RAW_TP10,AUX_RIGHT,Accelerometer_X,Accelerometer_Y,Accelerometer_Z,Gyro_X,Gyro_Y,Gyro_Z,HeadBandOn,HSI_TP9,HSI_AF7,HSI_AF8,HSI_TP10,Battery,Elements
2024-11-24 16:20:15.002,,,,,,,,,,,,,,,,,,,,,,,,,,,,,,,,,,,,,,/muse/event/connected Muse-D2D3
2024-11-24 16:20:15.212,,,,,,,,,,,,,,,,,,,,,,,,,,,,,,,,,,,,,,/muse/elements/blink
2024-11-24 16:20:15.419,,,,,,,,,,,,,,,,,,,,,,,,,,,,,,,,,,,,,,/muse/elements/blink
2024-11-24 16:20:15.503,1.394398654500115,0.9060746656074039,1.055014271933819,1.246716229642022,0.2951281050554641,0.7659585877563635,0.992713039495481,0.851712894288415,0.8915250291925824,0.7764574241602294,0.698603986033649,1.042172945129516,0.8513350022751365,0.3716091931573339,-0.0005861793097492948,0.7153785569556589,0.120296014935088,0.1000824248428872,-0.3737650455488618,0.4682085318520561,796.5934065934066,807.4725274725275,795.3846153846154,792.5641025641025,846.959706959707,-0.304382,0.149231,0.954346,2.041168,-2.041168,0.014954,1,2,1,1,2,70.000000
2024-11-24 16:20:16.002,1.394398654500115,1.078677725589186,1.361339107649158,1.246716229642022,0.2951281050554641,0.8561595600113426,1.229902249609139,0.851712894288415,0.8915250291925824,0.7405107879934787,0.9358634892627672,1.042172945129516,0.8513350022751365,0.5061872066799467,0.02204383351411709,0.7153785569556589,0.120296014935088,0.0538185032066716,-0.3529109307902705,0.4682085318520561,1213.626373626374,813.5164835164835,769.1941391941392,1102.820512820513,696.2637362637363,-0.383972,0.162109,0.897217,13.458252,17.809753,-6.759033,1,2,1,1,2,70.000000
2024-11-24 16:20:16.118,,,,,,,,,,,,,,,,,,,,,,,,,,,,,,,,,,,,,,/muse/elements/blink
2024-11-24 16:20:16.352,,,,,,,,,,,,,,,,,,,,,,,,,,,,,,,,,,,,,,/muse/elements/blink
2024-11-24 16:20:16.506,1.394398654500115,1.11876781272857,1.569826807348024,1.246716229642022,0.2951281050554641,0.8240311486273101,1.386109314293811,0.851712894288415,0.8915250291925824,0.6879032721727111,0.9295957379269522,1.042172945129516,0.8513350022751365,0.5390812755740197,0.02386332509168714,0.7153785569556589,0.120296014935088,0.05216851024247297,-0.3232044610857661,0.4682085318520561,782.0879120879121,799.4139194139194,795.7875457875458,698.2783882783883,729.3040293040293,-0.386841,0.154358,0.913818,-1.487885,2.796326,2.527161,1,2,1,1,2,70.000000
2024-11-24 16:20:17.003,1.394398654500115,1.260483578409959,1.602986250781305,1.246716229642022,0.2951281050554641,0.8367035740149933,1.403132821751698,0.851712894288415,0.8915250291925824,0.5435560666774433,0.9295957379269522,1.042172945129516,0.8513350022751365,0.6319403441574206,0.01291586433515549,0.7153785569556589,0.120296014935088,0.02251771062428959,-0.3226606119269719,0.4682085318520561,793.3699633699634,798.6080586080586,794.1758241758242,885.6410256410256,695.4578754578755,-0.378601,0.161072,0.919983,1.099091,2.175751,1.929016,1,2,1,1,2,70.000000
2024-11-24 16:20:17.333,,,,,,,,,,,,,,,,,,,,,,,,,,,,,,,,,,,,,,/muse/elements/blink
2024-11-24 16:20:17.505,1.394398654500115,0.3240054249862702,1.602986250781305,1.246716229642022,0.2951281050554641,0.2961542490270583,1.403132821751698,0.851712894288415,0.8915250291925824,0.2561569601141056,0.9295957379269522,1.042172945129516,0.8513350022751365,0.4702710123185693,0.01291586433515549,0.7153785569556589,0.120296014935088,0.2595725652652637,-0.3226606119269719,0.4682085318520561,788.9377289377289,794.1758241758242,793.3699633699634,789.7435897435897,861.0622710622711,-0.374695,0.171265,0.940796,-2.160797,-2.302856,3.177643,1,2,1,1,2,70.000000
2024-11-24 16:20:18.003,1.394398654500115,0.8121919468504903,1.602986250781305,1.246716229642022,0.2951281050554641,0.6550962605021968,1.403132821751698,0.851712894288415,0.8915250291925824,0.5079986123592102,0.9295957379269522,1.042172945129516,0.8513350022751365,0.4631157742005786,0.01291586433515549,0.7153785569556589,0.120296014935088,0.2698225738264419,-0.3226606119269719,0.4682085318520561,814.7252747252747,807.8754578754579,796.5934065934066,784.9084249084249,791.7582417582418,-0.388245,0.145142,0.930969,6.250610,-3.745880,-3.648682,1,2,1,1,2,70.000000
2024-11-24 16:20:18.450,,,,,,,,,,,,,,,,,,,,,,,,,,,,,,,,,,,,,,/muse/elements/blink
2024-11-24 16:20:18.503,1.394398654500115,0.7715261036920147,0.4116126751399429,1.246716229642022,0.2951281050554641,0.5216768143413023,0.2827197139585669,0.851712894288415,0.8915250291925824,0.5616517870451135,0.04434002911232202,1.042172945129516,0.8513350022751365,0.3922234066909704,0.02766344595525143,0.7153785569556589,0.120296014935088,0.1925858227978214,-0.2516071828887048,0.4682085318520561,874.3589743589744,799.4139194139194,792.5641025641025,885.2380952380953,655.5677655677656,-0.377380,0.167358,0.931641,-2.071075,1.271057,4.583282,1,2,1,1,2,70.000000
2024-11-24 16:20:18.959,,,,,,,,,,,,,,,,,,,,,,,,,,,,,,,,,,,,,,/muse/elements/blink
2024-11-24 16:20:19.003,1.394398654500115,1.139920614635197,1.184048163268899,1.246716229642022,0.2951281050554641,0.5430839823064735,1.144886637368107,0.851712894288415,0.8915250291925824,0.6451297914841292,0.760075267995389,1.042172945129516,0.8513350022751365,0.3799037379292556,0.03761325458899772,0.7153785569556589,0.120296014935088,0.1107358831928512,-0.2258698871869277,0.4682085318520561,757.9120879120879,806.2637362637363,799.4139194139194,788.1318681318681,1063.736263736264,-0.424316,0.121704,0.915710,0.216827,-0.732727,-2.886047,1,2,1,1,2,70.000000
2024-11-24 16:20:19.507,1.394398654500115,1.063504288614094,1.083069405438626,1.246716229642022,0.2951281050554641,0.195354550558806,1.018474148999906,0.851712894288415,0.8915250291925824,0.5906345716154719,0.760493468151437,1.042172945129516,0.8513350022751365,0.2819949567911087,0.07037147237249436,0.7153785569556589,0.120296014935088,-0.06146640182381393,-0.3219994871254765,0.4682085318520561,879.5970695970697,784.5054945054945,775.6410256410256,1627.032967032967,1626.630036630037,-0.504517,0.126526,0.795410,-9.607697,2.609406,39.066315,1,2,1,1,2,70.000000
2024-11-24 16:20:19.571,,,,,,,,,,,,,,,,,,,,,,,,,,,,,,,,,,,,,,/muse/elements/blink
2024-11-24 16:20:20.003,1.394398654500115,1.16216765485733,1.153720692578322,1.246716229642022,0.2951281050554641,0.3305894268679145,1.096131708959835,0.851712894288415,0.8915250291925824,0.5865509286683723,0.760493468151437,1.042172945129516,0.8513350022751365,0.2972224950715857,0.07790202873848694,0.7153785569556589,0.120296014935088,-0.07048009037718843,-0.3437790398381503,0.4682085318520561,676.1172161172161,831.6483516483516,823.5897435897436,1210.40293040293,419.8534798534799,-0.315125,0.127197,0.829102,4.867401,-10.886230,-17.764893,1,2,1,1,2,70.000000
2024-11-24 16:20:20.122,,,,,,,,,,,,,,,,,,,,,,,,,,,,,,,,,,,,,,/muse/elements/blink
2024-11-24 16:20:20.381,,,,,,,,,,,,,,,,,,,,,,,,,,,,,,,,,,,,,,/muse/elements/blink
2024-11-24 16:20:20.507,1.394398654500115,0.9593402283161522,0.8169964256139671,1.246716229642022,0.2951281050554641,0.8901241368967406,0.6299161818712703,0.851712894288415,0.8915250291925824,0.8574904403430696,0.4126848686246499,1.042172945129516,0.8513350022751365,0.3067349870110604,0.1223510985328664,0.7153785569556589,0.120296014935088,0.1248617428251834,-0.5688552821820699,0.4682085318520561,574.1758241758242,802.2344322344322,775.6410256410256,819.5604395604396,707.948717948718,-0.229065,0.197876,1.083130,-11.865692,-22.796783,17.809753,1,2,1,1,4,70.000000
2024-11-24 16:20:20.634,,,,,,,,,,,,,,,,,,,,,,,,,,,,,,,,,,,,,,/muse/elements/blink
2024-11-24 16:20:21.003,1.394398654500115,1.068114414210752,0.8169964256139671,1.246716229642022,0.2951281050554641,1.124379513413673,0.6299161818712703,0.851712894288415,0.8915250291925824,0.8524519979324487,0.4126848686246499,1.042172945129516,0.8513350022751365,0.5655453676339848,0.1223510985328664,0.7153785569556589,0.120296014935088,0.2424588948418709,-0.5688552821820699,0.4682085318520561,777.6556776556777,782.0879120879121,799.4139194139194,833.6630036630037,340.4761904761905,-0.287720,0.198425,1.363098,10.953522,-5.689850,10.527344,1,2,1,1,2,70.000000
2024-11-24 16:20:21.079,,,,,,,,,,,,,,,,,,,,,,,,,,,,,,,,,,,,,,/muse/elements/blink
2024-11-24 16:20:21.510,1.394398654500115,1.031629074576783,0.8169964256139671,1.246716229642022,0.2951281050554641,1.121416990458981,0.6299161818712703,0.851712894288415,0.8915250291925824,0.8737985369804331,0.4126848686246499,1.042172945129516,0.8513350022751365,0.6331992803358646,0.1223510985328664,0.7153785569556589,0.120296014935088,0.4126537066079904,-0.5688552821820699,0.4682085318520561,861.0622710622711,759.5238095238095,782.893772893773,723.2600732600732,403.3333333333334,-0.381531,0.200439,1.164124,6.116028,0.142059,15.432129,1,2,1,1,2,70.000000
2024-11-24 16:20:21.683,,,,,,,,,,,,,,,,,,,,,,,,,,,,,,,,,,,,,,/muse/elements/jaw_clench
2024-11-24 16:20:21.823,,,,,,,,,,,,,,,,,,,,,,,,,,,,,,,,,,,,,,/muse/elements/blink
2024-11-24 16:20:22.019,1.394398654500115,0.9521514930180952,0.8169964256139671,1.246716229642022,0.2951281050554641,1.038627678410246,0.6299161818712703,0.851712894288415,0.8915250291925824,0.8039470634261235,0.4126848686246499,1.042172945129516,0.8513350022751365,0.6671673611766262,0.1223510985328664,0.7153785569556589,0.120296014935088,0.4105238867193352,-0.5688552821820699,0.4682085318520561,787.3260073260074,807.4725274725275,803.8461538461539,444.0293040293041,966.6300366300367,-0.295898,0.170288,0.816895,3.768311,3.439331,5.914154,1,2,1,1,4,70.000000
2024-11-24 16:20:22.503,1.394398654500115,1.066133713321939,0.8169964256139671,1.246716229642022,0.2951281050554641,0.9969244347272908,0.6299161818712703,0.851712894288415,0.8915250291925824,1.21915474068932,0.4126848686246499,1.042172945129516,0.8513350022751365,0.8101410268220769,0.1223510985328664,0.7153785569556589,0.120296014935088,0.7144502046957697,-0.5688552821820699,0.4682085318520561,772.4175824175825,802.2344322344322,792.1611721611722,954.5421245421246,356.1904761904762,-0.252991,0.140320,0.669189,8.800201,3.693542,2.661743,1,4,1,1,4,70.000000
2024-11-24 16:20:22.559,,,,,,,,,,,,,,,,,,,,,,,,,,,,,,,,,,,,,,/muse/elements/blink
2024-11-24 16:20:22.815,,,,,,,,,,,,,,,,,,,,,,,,,,,,,,,,,,,,,,/muse/elements/blink
2024-11-24 16:20:23.007,1.394398654500115,1.146813008160484,0.8169964256139671,1.246716229642022,0.2951281050554641,0.9235948887768771,0.6299161818712703,0.851712894288415,0.8915250291925824,1.21915474068932,0.4126848686246499,1.042172945129516,0.8513350022751365,0.888643423789744,0.1223510985328664,0.7153785569556589,0.120296014935088,0.8323218097804143,-0.5688552821820699,0.4682085318520561,738.5714285714286,808.2783882783883,797.3992673992674,427.9120879120879,1011.355311355311,-0.220093,0.138428,0.659058,-7.895508,8.792725,-12.710571,1,2,1,1,4,70.000000
2024-11-24 16:20:23.322,,,,,,,,,,,,,,,,,,,,,,,,,,,,,,,,,,,,,,/muse/elements/blink
2024-11-24 16:20:23.503,1.394398654500115,1.146813008160484,0.8169964256139671,1.246716229642022,0.2951281050554641,0.9235948887768771,0.6299161818712703,0.851712894288415,0.8915250291925824,1.21915474068932,0.4126848686246499,1.042172945129516,0.8513350022751365,0.888643423789744,0.1223510985328664,0.7153785569556589,0.120296014935088,0.8323218097804143,-0.5688552821820699,0.4682085318520561,568.5347985347986,803.8461538461539,803.4432234432235,791.3553113553114,876.3736263736264,-0.244141,0.102417,0.677856,7.843170,-2.841187,-3.080444,1,4,1,1,4,70.000000
2024-11-24 16:20:23.762,,,,,,,,,,,,,,,,,,,,,,,,,,,,,,,,,,,,,,/muse/elements/blink
2024-11-24 16:20:23.950,,,,,,,,,,,,,,,,,,,,,,,,,,,,,,,,,,,,,,/muse/elements/blink
2024-11-24 16:20:24.008,1.394398654500115,1.167906351237325,1.061086332725852,1.246716229642022,0.2951281050554641,0.1713574918559115,0.5629463722512,0.851712894288415,0.8915250291925824,0.4104597691607625,0.3963622010412173,1.042172945129516,0.8513350022751365,0.5522008024858303,0.2183798519156922,0.7153785569556589,0.120296014935088,0.705886742943641,-0.1758619483352372,0.4682085318520561,849.3772893772895,802.6373626373627,802.6373626373627,1079.450549450549,1046.007326007326,-0.190613,0.129883,0.648926,-1.510315,5.525360,-2.100983,1,4,1,1,4,70.000000
2024-11-24 16:20:24.460,,,,,,,,,,,,,,,,,,,,,,,,,,,,,,,,,,,,,,/muse/elements/blink
2024-11-24 16:20:24.503,1.394398654500115,1.136350674420681,1.018903855368315,1.246716229642022,0.2951281050554641,0.3429046039920495,0.6484314465758071,0.851712894288415,0.8915250291925824,0.7948618873019416,0.6181661427903425,1.042172945129516,0.8513350022751365,0.7425026337641364,0.240001738686092,0.7153785569556589,0.120296014935088,0.7741403440682589,0.03695193275291757,0.4682085318520561,885.2380952380953,796.996336996337,806.6666666666667,861.8681318681319,1143.919413919414,-0.268494,0.098938,0.729858,8.897400,-12.710571,0.306549,1,4,1,1,4,70.000000
2024-11-24 16:20:24.650,,,,,,,,,,,,,,,,,,,,,,,,,,,,,,,,,,,,,,/muse/elements/blink
2024-11-24 16:20:24.974,,,,,,,,,,,,,,,,,,,,,,,,,,,,,,,,,,,,,,/muse/elements/blink
2024-11-24 16:20:25.002,1.394398654500115,1.089625222278703,0.9856433310391646,1.246716229642022,0.2951281050554641,0.3949627609264347,0.5260312988094735,0.851712894288415,0.8915250291925824,0.7948618873019416,0.6622453722802921,1.042172945129516,0.8513350022751365,0.7152846916847841,0.2257069550948151,0.7153785569556589,0.120296014935088,0.6726400498555684,-0.02265023404987155,0.4682085318520561,959.7802197802198,801.4285714285714,801.8315018315019,1522.673992673993,657.5824175824176,-0.223267,0.203979,0.769531,7.618866,-12.643280,8.673096,1,4,1,1,2,70.000000
2024-11-24 16:20:25.258,,,,,,,,,,,,,,,,,,,,,,,,,,,,,,,,,,,,,,/muse/elements/blink
2024-11-24 16:20:25.503,1.394398654500115,1.027234626348661,0.9288836083287954,1.246716229642022,0.2951281050554641,0.5194456149763779,0.4697363640487586,0.851712894288415,0.8915250291925824,0.8484482465631019,0.6622453722802921,1.042172945129516,0.8513350022751365,0.7438928519052785,0.2059940348709986,0.7153785569556589,0.120296014935088,0.6443149613732712,0.008306282154162454,0.4682085318520561,1065.750915750916,806.2637362637363,795.7875457875458,1482.783882783883,844.9450549450549,-0.348206,0.154419,0.989441,5.203857,8.972168,13.308716,1,4,1,1,4,70.000000
2024-11-24 16:20:25.585,,,,,,,,,,,,,,,,,,,,,,,,,,,,,,,,,,,,,,/muse/elements/blink
2024-11-24 16:20:26.003,1.394398654500115,1.059728595185644,0.8950823131627458,1.246716229642022,0.2951281050554641,0.5978915265737056,0.1169482399388792,0.851712894288415,0.8915250291925824,0.7790232019436339,0.4066169111692758,1.042172945129516,0.8513350022751365,0.7409612210783589,0.1623078349993682,0.7153785569556589,0.120296014935088,0.563775482852059,-0.1749711737994213,0.4682085318520561,803.8461538461539,801.4285714285714,776.8498168498169,649.5238095238095,1116.520146520146,-0.404053,0.200806,1.000427,2.691650,2.684174,-14.482574,1,4,1,1,4,70.000000
2024-11-24 16:20:26.503,1.394398654500115,1.023031768466707,1.169756501059481,1.246716229642022,0.2951281050554641,0.5927651893328139,1.092583378899752,0.851712894288415,0.8915250291925824,0.7963413195310656,0.863448954382837,1.042172945129516,0.8513350022751365,0.6963439677767933,0.1511223436951598,0.7153785569556589,0.120296014935088,0.5326823556918563,-0.1891426089580562,0.4682085318520561,868.7179487179487,803.8461538461539,792.1611721611722,977.1062271062272,814.7252747252747,-0.330627,0.156494,0.987366,5.144043,8.067474,1.091614,1,4,1,1,4,70.000000
2024-11-24 16:20:26.576,,,,,,,,,,,,,,,,,,,,,,,,,,,,,,,,,,,,,,/muse/elements/blink
2024-11-24 16:20:26.880,,,,,,,,,,,,,,,,,,,,,,,,,,,,,,,,,,,,,,/muse/elements/blink
2024-11-24 16:20:27.010,1.394398654500115,1.090580385172723,1.169756501059481,1.246716229642022,0.2951281050554641,0.6827851032705009,1.092583378899752,0.851712894288415,0.8915250291925824,0.8096744645399504,0.863448954382837,1.042172945129516,0.8513350022751365,0.757133496325633,0.1511223436951598,0.7153785569556589,0.120296014935088,0.3734448529657766,-0.1891426089580562,0.4682085318520561,618.0952380952381,800.6227106227107,796.996336996337,596.3369963369963,951.7216117216118,-0.336975,0.192566,0.950928,5.413208,-14.325562,-5.375824,1,4,1,1,4,70.000000
2024-11-24 16:20:27.208,,,,,,,,,,,,,,,,,,,,,,,,,,,,,,,,,,,,,,/muse/elements/blink
2024-11-24 16:20:27.503,1.394398654500115,1.0633036086376,1.174145173847012,1.246716229642022,0.2951281050554641,0.6302902521205258,1.137762723588418,0.851712894288415,0.8915250291925824,0.8335660792275561,0.8758367097004075,1.042172945129516,0.8513350022751365,0.7463641916671125,0.3591922583524153,0.7153785569556589,0.120296014935088,0.2160119483729393,-0.06097617851030559,0.4682085318520561,826.8131868131868,809.8901098901099,799.0109890109891,1189.85347985348,515.7509157509157,-0.365173,0.184265,0.990723,8.142242,-5.951538,11.297455,1,4,1,1,4,70.000000
2024-11-24 16:20:27.513,,,,,,,,,,,,,,,,,,,,,,,,,,,,,,,,,,,,,,/muse/elements/blink
2024-11-24 16:20:27.922,,,,,,,,,,,,,,,,,,,,,,,,,,,,,,,,,,,,,,/muse/elements/blink
2024-11-24 16:20:28.003,1.394398654500115,1.051924100973514,0.7420270791146789,1.246716229642022,0.2951281050554641,0.6043263738698059,0.4937986611386212,0.851712894288415,0.8915250291925824,0.8932365450741107,0.4686822482484806,1.042172945129516,0.8513350022751365,0.7646238824858302,0.3264678057397267,0.7153785569556589,0.120296014935088,0.2650125317370113,-0.03025048258053881,0.4682085318520561,435.970695970696,781.2820512820513,771.6117216117216,873.1501831501831,922.3076923076924,-0.633667,0.178833,1.400146,-4.231873,2.998199,-4.478607,1,4,1,1,4,70.000000
2024-11-24 16:20:28.226,,,,,,,,,,,,,,,,,,,,,,,,,,,,,,,,,,,,,,/muse/elements/blink
2024-11-24 16:20:28.503,1.394398654500115,1.049929364238493,0.6797783792062321,1.246716229642022,0.2951281050554641,0.4720272693617668,0.4883830777316386,0.851712894288415,0.8915250291925824,0.8604695552149119,0.5407495975114024,1.042172945129516,0.8513350022751365,0.72961713189359,0.2905913880750879,0.7153785569556589,0.120296014935088,0.2686395223742347,-0.08576739905612764,0.4682085318520561,450.8791208791209,753.0769230769231,801.8315018315019,713.992673992674,953.3333333333334,-0.553162,0.215881,1.143250,2.071075,-2.564545,22.677155,1,4,1,1,4,70.000000
2024-11-24 16:20:28.721,,,,,,,,,,,,,,,,,,,,,,,,,,,,,,,,,,,,,,/muse/elements/blink
2024-11-24 16:20:28.932,,,,,,,,,,,,,,,,,,,,,,,,,,,,,,,,,,,,,,/muse/elements/blink
2024-11-24 16:20:29.003,1.394398654500115,1.278136563927078,0.5778788289963704,1.246716229642022,0.2951281050554641,0.8254146632312857,0.4770578380720327,0.851712894288415,0.8915250291925824,0.8117864091022899,0.5140494687030002,1.042172945129516,0.8513350022751365,0.7984915243958108,0.2544437857871708,0.7153785569556589,0.120296014935088,0.5288879962752987,-0.1091845219685743,0.4682085318520561,1202.344322344322,789.3406593406594,805.0549450549451,589.0842490842491,966.6300366300367,-0.728760,0.259155,1.384277,-9.196472,-4.665527,7.551575,1,4,1,1,2,70.000000
2024-11-24 16:20:29.150,,,,,,,,,,,,,,,,,,,,,,,,,,,,,,,,,,,,,,/muse/elements/blink
2024-11-24 16:20:29.341,,,,,,,,,,,,,,,,,,,,,,,,,,,,,,,,,,,,,,/muse/elements/blink
2024-11-24 16:20:29.517,1.394398654500115,1.230865635594096,0.4125450652972175,1.246716229642022,0.2951281050554641,0.9511838895430245,0.4567477764647425,0.851712894288415,0.8915250291925824,0.8137715488570779,0.4783510586563146,1.042172945129516,0.8513350022751365,0.7853815478683813,0.1743643189723195,0.7153785569556589,0.120296014935088,0.5934064337306068,-0.2695849828921613,0.4682085318520561,707.5457875457876,817.1428571428571,794.981684981685,607.6190476190476,1600.842490842491,-0.785522,0.272339,1.238708,10.646973,-0.814972,5.106659,1,4,1,1,2,70.000000
2024-11-24 16:20:29.831,,,,,,,,,,,,,,,,,,,,,,,,,,,,,,,,,,,,,,/muse/elements/blink
2024-11-24 16:20:30.003,1.394398654500115,1.204953080673888,0.5499195613214105,1.246716229642022,0.2951281050554641,0.8959392017812385,0.5576044725002248,0.851712894288415,0.8915250291925824,0.8138533833730455,0.6225759875810468,1.042172945129516,0.8513350022751365,0.6991500276787282,0.2733839904250796,0.7153785569556589,0.120296014935088,0.5076720784528387,-0.1997032174764437,0.4682085318520561,870.7326007326008,812.7106227106227,806.6666666666667,536.3003663003664,898.9377289377289,-0.630005,0.224670,1.045227,7.177734,-8.501129,-10.220795,1,2,1,1,2,70.000000
2024-11-24 16:20:30.041,,,,,,,,,,,,,,,,,,,,,,,,,,,,,,,,,,,,,,/muse/elements/blink
2024-11-24 16:20:30.372,,,,,,,,,,,,,,,,,,,,,,,,,,,,,,,,,,,,,,/muse/elements/blink
2024-11-24 16:20:30.503,1.394398654500115,0.8786553170326268,0.6861614506451461,1.246716229642022,0.2951281050554641,0.6970821745633917,0.5687208056212237,0.851712894288415,0.8915250291925824,0.6937587558906542,0.6343113564303311,1.042172945129516,0.8513350022751365,0.4713304327747368,0.3110330208975335,0.7153785569556589,0.120296014935088,0.2800442210424363,-0.2233061004358348,0.4682085318520561,792.967032967033,796.996336996337,807.4725274725275,794.5787545787546,1356.263736263736,-0.601440,0.179626,1.148865,-2.362671,-7.775879,10.646973,1,2,1,1,2,70.000000
2024-11-24 16:20:31.002,1.394398654500115,0.8401601601594513,0.6711636498842145,1.246716229642022,0.2951281050554641,0.4816985239248786,0.485660199032426,0.851712894288415,0.8915250291925824,0.622149317035789,0.6343113564303311,1.042172945129516,0.8513350022751365,0.3568267128267327,0.2683483793929309,0.7153785569556589,0.120296014935088,0.1498525311699366,-0.2060257435346252,0.4682085318520561,761.5384615384615,808.2783882783883,811.9047619047619,902.1611721611722,255.8608058608059,-0.357849,0.120850,0.775146,6.048737,4.344025,6.056213,1,2,1,1,2,70.000000
2024-11-24 16:20:31.163,,,,,,,,,,,,,,,,,,,,,,,,,,,,,,,,,,,,,,/muse/elements/blink
2024-11-24 16:20:31.329,,,,,,,,,,,,,,,,,,,,,,,,,,,,,,,,,,,,,,/muse/elements/blink
2024-11-24 16:20:31.503,1.394398654500115,0.620978597883958,0.6353841088769371,1.246716229642022,0.2951281050554641,0.4632980498305441,0.3219029934591329,0.851712894288415,0.8915250291925824,0.4989566468846578,0.5161909548193367,1.042172945129516,0.8513350022751365,0.4506311949558399,0.2232354073424477,0.7153785569556589,0.120296014935088,0.2325003618282117,-0.2219907019171081,0.4682085318520561,858.2417582417582,811.5018315018315,789.7435897435897,741.7948717948718,394.4688644688645,-0.366760,0.148010,0.681213,-4.291687,9.772186,-5.682373,1,2,1,1,2,70.000000
2024-11-24 16:20:31.886,,,,,,,,,,,,,,,,,,,,,,,,,,,,,,,,,,,,,,/muse/elements/blink
2024-11-24 16:20:32.003,1.394398654500115,0.6491032531256878,0.6547229401958351,1.246716229642022,0.2951281050554641,0.4217007205017553,0.2859383027630688,0.851712894288415,0.8915250291925824,0.5027510451478651,0.4914242924439826,1.042172945129516,0.8513350022751365,0.4079263679428292,0.1867209203172176,0.7153785569556589,0.120296014935088,0.2536229038984171,-0.2099952307068461,0.4682085318520561,682.5641025641025,795.7875457875458,809.8901098901099,909.0109890109891,310.2564102564103,-0.362793,0.112000,0.692688,3.835602,8.134766,1.570129,1,2,1,1,2,70.000000
2024-11-24 16:20:32.377,,,,,,,,,,,,,,,,,,,,,,,,,,,,,,,,,,,,,,/muse/elements/blink
2024-11-24 16:20:32.503,1.394398654500115,0.8304122980938318,0.6319458730859558,1.246716229642022,0.2951281050554641,0.3948501978433857,0.3252992880549509,0.851712894288415,0.8915250291925824,0.7943722055064802,0.4958752507696103,1.042172945129516,0.8513350022751365,0.3434066880995445,0.2926139220331606,0.7153785569556589,0.120296014935088,0.1753904269135021,-0.1947657348136731,0.4682085318520561,749.8534798534798,799.0109890109891,801.4285714285714,723.2600732600732,594.7252747252747,-0.385315,0.150208,0.718140,-1.914062,0.373840,-2.579498,1,2,1,1,2,70.000000
2024-11-24 16:20:32.796,,,,,,,,,,,,,,,,,,,,,,,,,,,,,,,,,,,,,,/muse/elements/blink
2024-11-24 16:20:32.985,,,,,,,,,,,,,,,,,,,,,,,,,,,,,,,,,,,,,,/muse/elements/blink
2024-11-24 16:20:33.003,1.394398654500115,0.9568543647301782,0.9120887067231114,1.246716229642022,0.2951281050554641,0.5034693392841679,0.5129416253762943,0.851712894288415,0.8915250291925824,0.8259284049679483,0.5408694379842374,1.042172945129516,0.8513350022751365,0.2504286534859527,0.2955061531449151,0.7153785569556589,0.120296014935088,0.1166297340596579,-0.05593313585091675,0.4682085318520561,640.6593406593407,835.2747252747253,841.7216117216118,668.0586080586081,907.3992673992674,-0.298828,0.125732,0.613647,4.164581,8.635712,11.095581,1,2,1,1,2,70.000000
2024-11-24 16:20:33.197,,,,,,,,,,,,,,,,,,,,,,,,,,,,,,,,,,,,,,/muse/elements/blink
2024-11-24 16:20:33.502,,,,,,,,,,,,,,,,,,,,,,,,,,,,,,,,,,,,,,/muse/elements/blink
2024-11-24 16:20:33.515,1.394398654500115,0.9509909709234788,0.9481822375710981,1.246716229642022,0.2951281050554641,0.4687811108440469,0.5102820458011383,0.851712894288415,0.8915250291925824,0.8136622804774464,0.4120284822371636,1.042172945129516,0.8513350022751365,0.2092385012157255,0.3130348916859454,0.7153785569556589,0.120296014935088,0.07538698480570259,0.004856118225143882,0.4682085318520561,821.5750915750916,779.2673992673992,821.5750915750916,863.4798534798535,690.2197802197802,-0.304565,0.073364,0.666016,-11.424561,-0.717773,-22.744446,1,2,1,1,2,70.000000
2024-11-24 16:20:33.711,,,,,,,,,,,,,,,,,,,,,,,,,,,,,,,,,,,,,,/muse/elements/blink
2024-11-24 16:20:33.898,,,,,,,,,,,,,,,,,,,,,,,,,,,,,,,,,,,,,,/muse/elements/blink
2024-11-24 16:20:34.003,1.394398654500115,0.9890405154739216,1.084450940853136,1.246716229642022,0.2951281050554641,0.6145938411190111,0.5666184202367076,0.851712894288415,0.8915250291925824,0.8047542869405074,0.3071551792032042,1.042172945129516,0.8513350022751365,0.2711179869858245,0.1926724028457336,0.7153785569556589,0.120296014935088,0.1051826468180249,0.1024322513047793,0.4682085318520561,773.2234432234433,788.9377289377289,764.7619047619048,896.9230769230769,918.2783882783883,-0.194702,0.107239,0.651184,12.179718,-0.328979,3.005676,1,4,1,1,2,70.000000
2024-11-24 16:20:34.503,1.394398654500115,0.8645125186741216,1.219061214042344,1.246716229642022,0.2951281050554641,0.726032127322325,0.6715226611685416,0.851712894288415,0.8915250291925824,0.6872685688701342,0.2242579319655802,1.042172945129516,0.8513350022751365,0.2814084162890392,0.09677305417542834,0.7153785569556589,0.120296014935088,0.1017593779293215,0.09855590684338046,0.4682085318520561,956.1538461538462,799.0109890109891,792.1611721611722,1005.311355311355,1317.582417582418,-0.227173,0.142029,0.693115,6.123505,-7.050629,-3.439331,1,2,1,1,2,70.000000
2024-11-24 16:20:35.003,1.394398654500115,0.8645125186741216,1.219061214042344,1.246716229642022,0.2951281050554641,0.726032127322325,0.6715226611685416,0.851712894288415,0.8915250291925824,0.6872685688701342,0.2242579319655802,1.042172945129516,0.8513350022751365,0.2814084162890392,0.09677305417542834,0.7153785569556589,0.120296014935088,0.1017593779293215,0.09855590684338046,0.4682085318520561,1082.271062271062,792.1611721611722,792.1611721611722,893.2967032967033,343.2967032967033,-0.230347,0.154297,0.786072,6.706696,-2.115936,2.564545,1,2,1,1,2,70.000000
2024-11-24 16:20:35.503,1.394398654500115,0.2295652702643592,1.219061214042344,1.246716229642022,0.2951281050554641,0.253506885104369,0.6715226611685416,0.851712894288415,0.8915250291925824,0.4762933372944445,0.2242579319655802,1.042172945129516,0.8513350022751365,0.6939908513225187,0.09677305417542834,0.7153785569556589,0.120296014935088,0.5124075426284772,0.09855590684338046,0.4682085318520561,880,817.948717948718,800.2197802197802,821.978021978022,821.1721611721612,-0.226318,0.128235,0.704102,5.510406,-4.852448,-3.177643,1,4,1,1,2,70.000000
2024-11-24 16:20:35.512,,,,,,,,,,,,,,,,,,,,,,,,,,,,,,,,,,,,,,/muse/elements/blink
2024-11-24 16:20:35.862,,,,,,,,,,,,,,,,,,,,,,,,,,,,,,,,,,,,,,/muse/elements/blink
2024-11-24 16:20:36.003,1.394398654500115,0.07382073161707718,-0.3419671783880328,1.246716229642022,0.2951281050554641,0.2066793501746139,-0.2468640515963024,0.851712894288415,0.8915250291925824,0.52717330633115,0.2645462042803537,1.042172945129516,0.8513350022751365,0.6897229348546235,0.4965483822690089,0.7153785569556589,0.120296014935088,0.4528815160935654,0.09218485873091616,0.4682085318520561,897.3260073260074,806.2637362637363,809.4871794871796,902.967032967033,595.934065934066,-0.192810,0.142212,0.776794,5.316010,-17.488251,-2.287903,1,4,1,1,2,70.000000
2024-11-24 16:20:36.030,,,,,,,,,,,,,,,,,,,,,,,,,,,,,,,,,,,,,,/muse/elements/blink
2024-11-24 16:20:36.452,,,,,,,,,,,,,,,,,,,,,,,,,,,,,,,,,,,,,,/muse/elements/blink
2024-11-24 16:20:36.508,1.394398654500115,0.1809016883851402,0.01136148348300341,1.246716229642022,0.2951281050554641,0.1792974171513931,-0.1959266997869722,0.851712894288415,0.8915250291925824,0.53528451835464,0.2798204380066053,1.042172945129516,0.8513350022751365,0.7083433035391312,0.3600546610058326,0.7153785569556589,0.120296014935088,0.3663613276584901,0.08714691098797969,0.4682085318520561,901.3553113553114,815.5311355311355,796.1904761904763,898.1318681318681,122.4908424908425,-0.243652,0.171326,0.819519,5.061798,-5.046844,1.637421,1,2,1,1,2,70.000000
2024-11-24 16:20:37.003,1.394398654500115,0.2639250650944986,0.05396980194821327,1.246716229642022,0.2951281050554641,0.1311703921852112,-0.1185312193111288,0.851712894288415,0.8915250291925824,0.5287889958442533,0.3492440184401536,1.042172945129516,0.8513350022751365,0.675663186535626,0.2782767317845642,0.7153785569556589,0.120296014935088,0.2274967653579958,0.03595184164174106,0.4682085318520561,950.9157509157509,794.5787545787546,813.919413919414,936.007326007326,1095.164835164835,-0.256409,0.148071,0.921448,0.523376,-11.132965,5.929108,1,2,1,1,2,70.000000
2024-11-24 16:20:37.057,,,,,,,,,,,,,,,,,,,,,,,,,,,,,,,,,,,,,,/muse/elements/blink
2024-11-24 16:20:37.480,,,,,,,,,,,,,,,,,,,,,,,,,,,,,,,,,,,,,,/muse/elements/blink
2024-11-24 16:20:37.503,1.394398654500115,0.9102490415093338,0.1676041744347371,1.246716229642022,0.2951281050554641,0.7199273876976523,-0.06625320071402209,0.851712894288415,0.8915250291925824,0.7171301460009191,0.2815207343025695,1.042172945129516,0.8513350022751365,0.6185622831611945,0.1066158082330863,0.7153785569556589,0.120296014935088,0.1573815467573299,0.004846046461202605,0.4682085318520561,837.2893772893773,806.2637362637363,809.8901098901099,797.8021978021978,1251.501831501831,-0.397705,0.205627,1.011719,-1.143951,2.714081,-0.097198,1,2,1,1,2,70.000000
2024-11-24 16:20:37.966,,,,,,,,,,,,,,,,,,,,,,,,,,,,,,,,,,,,,,/muse/elements/blink
2024-11-24 16:20:38.002,1.394398654500115,1.100344246388487,0.1283840550704442,1.246716229642022,0.2951281050554641,0.9221447560501711,0.004164934654705564,0.851712894288415,0.8915250291925824,0.8621327906698593,0.2055001127176005,1.042172945129516,0.8513350022751365,0.5513506805210663,0.04588314951339546,0.7153785569556589,0.120296014935088,0.1693898340235129,-0.08911456067821948,0.4682085318520561,858.2417582417582,807.8754578754579,808.6813186813187,1008.937728937729,635.8241758241759,-0.354797,0.122681,1.037537,5.592651,-3.745880,-2.482300,1,2,1,1,2,70.000000
2024-11-24 16:20:38.503,1.394398654500115,1.080954960000979,0.09192552293843521,1.246716229642022,0.2951281050554641,0.9260307619750797,0.02194980927558459,0.851712894288415,0.8915250291925824,0.8621327906698593,0.2053180392738019,1.042172945129516,0.8513350022751365,0.6418295869433608,0.07076485599921081,0.7153785569556589,0.120296014935088,0.3072147925568394,-0.122691032938147,0.4682085318520561,966.6300366300367,784.1025641025641,774.4322344322345,1001.282051282051,1629.047619047619,-0.271057,0.188965,0.781006,-4.904785,-0.500946,1.659851,1,2,1,1,2,70.000000
2024-11-24 16:20:38.575,,,,,,,,,,,,,,,,,,,,,,,,,,,,,,,,,,,,,,/muse/elements/blink
2024-11-24 16:20:39.016,1.394398654500115,0.9891490816381019,0.09192552293843521,1.246716229642022,0.2951281050554641,0.8558848525719225,0.02194980927558459,0.851712894288415,0.8915250291925824,0.8358306595195232,0.2053180392738019,1.042172945129516,0.8513350022751365,0.6249033749333001,0.07076485599921081,0.7153785569556589,0.120296014935088,0.3413711643051265,-0.122691032938147,0.4682085318520561,778.4615384615385,815.934065934066,797.3992673992674,782.893772893773,1084.688644688645,-0.343628,0.136597,0.939270,11.394653,-10.916138,4.695435,1,2,1,1,2,70.000000
2024-11-24 16:20:39.094,,,,,,,,,,,,,,,,,,,,,,,,,,,,,,,,,,,,,,/muse/elements/blink
2024-11-24 16:20:39.503,1.394398654500115,0.7162018418803978,0.09192552293843521,1.246716229642022,0.2951281050554641,0.6989233110275894,0.02194980927558459,0.851712894288415,0.8915250291925824,0.7278509040141787,0.2053180392738019,1.042172945129516,0.8513350022751365,0.6068703899671923,0.07076485599921081,0.7153785569556589,0.120296014935088,0.4348772197085492,-0.122691032938147,0.4682085318520561,709.1575091575091,787.7289377289378,767.1794871794872,654.3589743589744,232.4908424908425,-0.570251,0.201477,1.359741,-3.469238,-10.003967,-3.760834,1,2,1,1,2,70.000000
2024-11-24 16:20:39.585,,,,,,,,,,,,,,,,,,,,,,,,,,,,,,,,,,,,,,/muse/elements/blink
2024-11-24 16:20:40.003,1.394398654500115,0.8039836144650163,1.404999295638339,1.246716229642022,0.2951281050554641,0.8149841077040616,1.347995788394908,0.851712894288415,0.8915250291925824,0.7184280000288031,0.9457602546792812,1.042172945129516,0.8513350022751365,0.5156401754166752,0.5191898398801532,0.7153785569556589,0.120296014935088,0.4385661418611601,0.5539330575673191,0.4682085318520561,647.9120879120879,799.8168498168499,798.6080586080586,678.1318681318681,1305.494505494506,-0.466064,0.188171,1.162720,11.073151,-11.013336,0.643005,1,2,1,1,2,70.000000
2024-11-24 16:20:40.503,1.394398654500115,0.6071089330569835,1.309500324065605,1.246716229642022,0.2951281050554641,0.6472713383245423,1.228197743283016,0.851712894288415,0.8915250291925824,0.7180222649887797,0.9457602546792812,1.042172945129516,0.8513350022751365,0.535605232579086,0.4696578357655283,0.7153785569556589,0.120296014935088,0.3540518787353141,0.4592448232176544,0.4682085318520561,905.7875457875458,839.7069597069598,765.9706959706959,752.6739926739926,592.7106227106227,-0.483887,0.156189,1.088318,9.936676,0.994415,-1.151428,1,2,1,1,2,70.000000
2024-11-24 16:20:40.601,,,,,,,,,,,,,,,,,,,,,,,,,,,,,,,,,,,,,,/muse/elements/blink
2024-11-24 16:20:40.925,,,,,,,,,,,,,,,,,,,,,,,,,,,,,,,,,,,,,,/muse/elements/blink
2024-11-24 16:20:41.003,1.394398654500115,0.8828480745207764,1.309500324065605,1.246716229642022,0.2951281050554641,0.7236065583934103,1.228197743283016,0.851712894288415,0.8915250291925824,0.6739867500846387,0.9457602546792812,1.042172945129516,0.8513350022751365,0.5152009231342076,0.4696578357655283,0.7153785569556589,0.120296014935088,0.2084216350596653,0.4592448232176544,0.4682085318520561,724.8717948717949,798.6080586080586,803.4432234432235,817.5457875457876,585.0549450549451,-0.446228,0.123169,0.990173,0.082245,-7.813263,-4.575806,1,2,1,1,2,70.000000
2024-11-24 16:20:41.369,,,,,,,,,,,,,,,,,,,,,,,,,,,,,,,,,,,,,,/muse/elements/blink
2024-11-24 16:20:41.503,1.394398654500115,1.137888898296485,1.191514417498137,1.246716229642022,0.2951281050554641,0.8309640743273119,1.052546064539892,0.851712894288415,0.8915250291925824,0.6499258926135868,0.8391142198722661,1.042172945129516,0.8513350022751365,0.4018281505241585,0.3766094477146693,0.7153785569556589,0.120296014935088,-0.07373196547111997,0.2727400263554503,0.4682085318520561,822.3809523809524,803.040293040293,815.1282051282052,859.4505494505495,77.36263736263737,-0.406738,0.171082,0.989563,6.803894,2.377625,-4.306641,1,2,1,1,2,70.000000
2024-11-24 16:20:41.627,,,,,,,,,,,,,,,,,,,,,,,,,,,,,,,,,,,,,,/muse/elements/blink
2024-11-24 16:20:41.865,,,,,,,,,,,,,,,,,,,,,,,,,,,,,,,,,,,,,,/muse/elements/blink
2024-11-24 16:20:42.003,1.394398654500115,1.148006492259935,1.014170326358966,1.246716229642022,0.2951281050554641,0.7842348467763878,0.833511544533847,0.851712894288415,0.8915250291925824,0.6723842840590371,0.6299588733237177,1.042172945129516,0.8513350022751365,0.3485271193037238,0.3195535096550177,0.7153785569556589,0.120296014935088,-0.04144011913132623,0.1733927406530189,0.4682085318520561,853.4065934065934,804.6520146520147,813.919413919414,664.0293040293041,208.7179487179487,-0.350464,0.124084,0.787109,-5.188904,6.190796,2.624359,1,2,1,1,2,70.000000
2024-11-24 16:20:42.032,,,,,,,,,,,,,,,,,,,,,,,,,,,,,,,,,,,,,,/muse/elements/blink
2024-11-24 16:20:42.403,,,,,,,,,,,,,,,,,,,,,,,,,,,,,,,,,,,,,,/muse/elements/blink
2024-11-24 16:20:42.503,1.394398654500115,0.9369014722514004,0.3297578121557784,1.246716229642022,0.2951281050554641,0.5443660929745607,0.09309077708554814,0.851712894288415,0.8915250291925824,0.6835212391719613,-0.1570786607475533,1.042172945129516,0.8513350022751365,0.2631195839512008,0.1821379863947039,0.7153785569556589,0.120296014935088,-0.02412298612440111,-0.1480033992490539,0.4682085318520561,791.3553113553114,792.1611721611722,809.8901098901099,849.3772893772895,231.6849816849817,-0.319214,0.103699,0.780518,4.979553,5.398254,10.519867,1,2,1,1,2,70.000000
2024-11-24 16:20:42.866,,,,,,,,,,,,,,,,,,,,,,,,,,,,,,,,,,,,,,/muse/elements/blink
2024-11-24 16:20:43.003,1.394398654500115,0.4446891962210244,0.2882188762589423,1.246716229642022,0.2951281050554641,0.06556541994270722,0.1033897888926505,0.851712894288415,0.8915250291925824,0.6253763396381266,0.09691331356586504,1.042172945129516,0.8513350022751365,0.2837398794727982,0.1760510399316478,0.7153785569556589,0.120296014935088,-0.01421711250651105,-0.1544585375666691,0.4682085318520561,793.3699633699634,805.4578754578755,810.6959706959707,961.3919413919414,1112.490842490843,-0.254395,0.078674,0.745178,-15.731201,5.704803,-3.409424,1,2,1,1,2,70.000000
2024-11-24 16:20:43.452,,,,,,,,,,,,,,,,,,,,,,,,,,,,,,,,,,,,,,/muse/elements/blink
2024-11-24 16:20:43.511,1.394398654500115,0.348821511044467,0.07690493086182888,1.246716229642022,0.2951281050554641,0.1043266078322579,0.1025790878864194,0.851712894288415,0.8915250291925824,0.5482839454013373,0.09691331356586504,1.042172945129516,0.8513350022751365,0.2077467229100207,0.211089791227199,0.7153785569556589,0.120296014935088,-0.06363449801827308,-0.130891468591899,0.4682085318520561,743.4065934065934,810.2930402930403,866.3003663003664,882.8205128205128,531.4652014652015,-0.190369,0.124512,0.695068,16.867676,-1.443024,25.219269,1,2,1,1,2,70.000000
2024-11-24 16:20:43.963,,,,,,,,,,,,,,,,,,,,,,,,,,,,,,,,,,,,,,/muse/elements/blink
2024-11-24 16:20:44.003,1.394398654500115,0.5225115591773773,0.07261242188063723,1.246716229642022,0.2951281050554641,0.2998793813951986,0.09676871801545274,0.851712894288415,0.8915250291925824,0.2547954238308319,0.08796692620249073,1.042172945129516,0.8513350022751365,0.2683014524801838,0.1535092491471546,0.7153785569556589,0.120296014935088,-0.05098597992448016,-0.1512940160028184,0.4682085318520561,1062.930402930403,817.5457875457876,799.0109890109891,1000.879120879121,302.6007326007326,-0.139709,0.186646,0.843201,7.745972,-21.637878,-12.441406,1,4,1,1,2,70.000000
2024-11-24 16:20:44.383,,,,,,,,,,,,,,,,,,,,,,,,,,,,,,,,,,,,,,/muse/elements/blink
2024-11-24 16:20:44.512,1.394398654500115,0.5225115591773773,0.07261242188063723,1.246716229642022,0.2951281050554641,0.2998793813951986,0.09676871801545274,0.851712894288415,0.8915250291925824,0.2547954238308319,0.08796692620249073,1.042172945129516,0.8513350022751365,0.2683014524801838,0.1535092491471546,0.7153785569556589,0.120296014935088,-0.05098597992448016,-0.1512940160028184,0.4682085318520561,948.901098901099,836.0805860805862,781.6849816849817,771.6117216117216,410.989010989011,-0.129150,0.067688,0.689148,9.802094,-11.514282,-13.458252,1,4,1,1,4,70.000000
2024-11-24 16:20:44.665,,,,,,,,,,,,,,,,,,,,,,,,,,,,,,,,,,,,,,/muse/elements/blink
2024-11-24 16:20:44.991,,,,,,,,,,,,,,,,,,,,,,,,,,,,,,,,,,,,,,/muse/elements/blink
2024-11-24 16:20:45.003,1.394398654500115,0.5225115591773773,0.07261242188063723,1.246716229642022,0.2951281050554641,0.2998793813951986,0.09676871801545274,0.851712894288415,0.8915250291925824,0.2547954238308319,0.08796692620249073,1.042172945129516,0.8513350022751365,0.2683014524801838,0.1535092491471546,0.7153785569556589,0.120296014935088,-0.05098597992448016,-0.1512940160028184,0.4682085318520561,813.5164835164835,815.1282051282052,772.014652014652,650.3296703296703,1478.351648351648,-0.281860,0.296509,0.904114,7.895508,-19.349976,1.128998,1,4,1,1,4,70.000000
2024-11-24 16:20:45.177,,,,,,,,,,,,,,,,,,,,,,,,,,,,,,,,,,,,,,/muse/elements/blink
2024-11-24 16:20:45.367,,,,,,,,,,,,,,,,,,,,,,,,,,,,,,,,,,,,,,/muse/elements/blink
2024-11-24 16:20:45.503,1.394398654500115,0.5225115591773773,0.07261242188063723,1.246716229642022,0.2951281050554641,0.2998793813951986,0.09676871801545274,0.851712894288415,0.8915250291925824,0.2547954238308319,0.08796692620249073,1.042172945129516,0.8513350022751365,0.2683014524801838,0.1535092491471546,0.7153785569556589,0.120296014935088,-0.05098597992448016,-0.1512940160028184,0.4682085318520561,1349.010989010989,811.0989010989011,757.5091575091575,268.7545787545787,1390.10989010989,-0.341003,0.052734,1.023315,-22.931366,-3.730927,-3.529053,1,4,1,1,4,70.000000
2024-11-24 16:20:45.714,,,,,,,,,,,,,,,,,,,,,,,,,,,,,,,,,,,,,,/muse/elements/blink
2024-11-24 16:20:45.975,,,,,,,,,,,,,,,,,,,,,,,,,,,,,,,,,,,,,,/muse/elements/blink
2024-11-24 16:20:46.012,1.394398654500115,0.5225115591773773,0.07261242188063723,1.246716229642022,0.2951281050554641,0.2998793813951986,0.09676871801545274,0.851712894288415,0.8915250291925824,0.2547954238308319,0.08796692620249073,1.042172945129516,0.8513350022751365,0.2683014524801838,0.1535092491471546,0.7153785569556589,0.120296014935088,-0.05098597992448016,-0.1512940160028184,0.4682085318520561,1132.234432234432,805.4578754578755,800.2197802197802,1210.40293040293,84.21245421245422,-0.272949,0.379822,1.135315,6.826324,-4.867401,14.355469,1,4,1,1,4,70.000000
2024-11-24 16:20:46.396,,,,,,,,,,,,,,,,,,,,,,,,,,,,,,,,,,,,,,/muse/elements/blink
2024-11-24 16:20:46.503,1.394398654500115,0.5225115591773773,0.07261242188063723,1.246716229642022,0.2951281050554641,0.2998793813951986,0.09676871801545274,0.851712894288415,0.8915250291925824,0.2547954238308319,0.08796692620249073,1.042172945129516,0.8513350022751365,0.2683014524801838,0.1535092491471546,0.7153785569556589,0.120296014935088,-0.05098597992448016,-0.1512940160028184,0.4682085318520561,601.978021978022,837.2893772893773,792.5641025641025,740.5860805860806,1036.739926739927,-0.249146,0.124939,1.044922,-5.375824,-9.622650,-12.015228,1,4,1,1,4,70.000000
2024-11-24 16:20:46.903,,,,,,,,,,,,,,,,,,,,,,,,,,,,,,,,,,,,,,/muse/elements/blink
2024-11-24 16:20:47.003,1.394398654500115,0.5225115591773773,1.205219123947375,1.246716229642022,0.2951281050554641,0.2998793813951986,1.04859334328041,0.851712894288415,0.8915250291925824,0.2547954238308319,1.11512726743693,1.042172945129516,0.8513350022751365,0.2683014524801838,0.2490185133191829,0.7153785569556589,0.120296014935088,-0.05098597992448016,-0.1047585798802035,0.4682085318520561,933.1868131868132,764.3589743589744,781.2820512820513,1027.472527472527,1447.728937728938,-0.218140,0.289429,1.048462,5.151520,-11.970367,10.265656,1,4,1,1,4,70.000000
2024-11-24 16:20:47.189,,,,,,,,,,,,,,,,,,,,,,,,,,,,,,,,,,,,,,/muse/elements/blink
2024-11-24 16:20:47.509,1.394398654500115,1.10989614993361,1.079292081010097,1.246716229642022,0.2951281050554641,0.8218083342636722,0.811920793777356,0.851712894288415,0.8915250291925824,0.6470060191714434,1.11512726743693,1.042172945129516,0.8513350022751365,0.8968066149672099,0.2312578850077702,0.7153785569556589,0.120296014935088,0.6398873036991638,-0.1357218771299762,0.4682085318520561,555.2380952380953,790.5494505494506,778.4615384615385,292.1245421245421,2.014652014652015,-0.603699,0.239136,1.738098,17.331238,-6.026306,1.039276,1,4,1,1,2,70.000000
2024-11-24 16:20:48.002,1.394398654500115,1.153411232156733,0.8669373137514007,1.246716229642022,0.2951281050554641,0.863460561665194,0.5210384654080638,0.851712894288415,0.8915250291925824,0.6492025565086272,0.4307190109127419,1.042172945129516,0.8513350022751365,0.8822860526548154,0.1259640002133973,0.7153785569556589,0.120296014935088,0.6258706140056417,-0.05780566184750929,0.4682085318520561,811.5018315018315,787.7289377289378,773.6263736263736,743.0036630036631,618.901098901099,-0.576965,0.275330,1.491333,8.590851,6.669312,-0.299072,1,4,1,1,4,70.000000
2024-11-24 16:20:48.056,,,,,,,,,,,,,,,,,,,,,,,,,,,,,,,,,,,,,,/muse/elements/blink
2024-11-24 16:20:48.244,,,,,,,,,,,,,,,,,,,,,,,,,,,,,,,,,,,,,,/muse/elements/blink
2024-11-24 16:20:48.502,1.394398654500115,1.151250212767715,1.009190168280017,1.246716229642022,0.2951281050554641,0.9212635440283887,0.81760132442663,0.851712894288415,0.8915250291925824,0.6388188189384352,0.5371362117851982,1.042172945129516,0.8513350022751365,0.8980823216647379,0.1511763860163134,0.7153785569556589,0.120296014935088,0.6295792371997833,-0.01631998759521015,0.4682085318520561,861.8681318681319,795.7875457875458,803.4432234432235,803.8461538461539,487.5457875457876,-0.387573,0.239014,1.058167,-1.988831,7.910461,-1.457977,1,2,1,1,2,70.000000
2024-11-24 16:20:48.761,,,,,,,,,,,,,,,,,,,,,,,,,,,,,,,,,,,,,,/muse/elements/blink
2024-11-24 16:20:49.003,1.394398654500115,1.217443189385337,1.038758461913738,1.246716229642022,0.2951281050554641,0.9645588597644552,0.8959929318789508,0.851712894288415,0.8915250291925824,0.600597936334887,0.5295063279383769,1.042172945129516,0.8513350022751365,0.8567244386798988,0.1407401463959157,0.7153785569556589,0.120296014935088,0.5337562487708599,0.01392009589350843,0.4682085318520561,880.8058608058608,809.8901098901099,815.1282051282052,744.2124542124542,2.820512820512821,-0.381470,0.224121,1.047363,11.686249,-1.801910,-13.959198,1,4,1,1,2,70.000000
2024-11-24 16:20:49.119,,,,,,,,,,,,,,,,,,,,,,,,,,,,,,,,,,,,,,/muse/elements/blink
2024-11-24 16:20:49.507,1.394398654500115,0.4858200787898574,1.007067904664423,1.246716229642022,0.2951281050554641,0.2143499810407136,0.8289518034191031,0.851712894288415,0.8915250291925824,0.4799976417427129,0.5340623128193611,1.042172945129516,0.8513350022751365,0.7898984823238512,0.2102110022877276,0.7153785569556589,0.120296014935088,0.6091661962290114,0.06838553486783083,0.4682085318520561,699.8901098901099,817.1428571428571,795.3846153846154,857.8388278388279,0,-0.236755,0.217896,0.762390,-6.489868,4.807587,-8.202057,1,4,1,1,2,70.000000
2024-11-24 16:20:49.960,,,,,,,,,,,,,,,,,,,,,,,,,,,,,,,,,,,,,,/muse/elements/blink
2024-11-24 16:20:50.003,1.394398654500115,0.9639645575766598,0.9108861278836941,1.246716229642022,0.2951281050554641,0.3728542138998412,0.5454761320067326,0.851712894288415,0.8915250291925824,0.5884458360530932,0.493008854878185,1.042172945129516,0.8513350022751365,0.7149543849878992,0.1896559444006855,0.7153785569556589,0.120296014935088,0.532314988604825,0.01423638332963211,0.4682085318520561,936.4102564102565,818.7545787545788,795.7875457875458,822.3809523809524,794.5787545787546,-0.240234,0.261780,0.639832,11.985321,8.119812,1.854248,1,4,1,1,2,70.000000
2024-11-24 16:20:50.243,,,,,,,,,,,,,,,,,,,,,,,,,,,,,,,,,,,,,,/muse/elements/blink
2024-11-24 16:20:50.475,,,,,,,,,,,,,,,,,,,,,,,,,,,,,,,,,,,,,,/muse/elements/blink
2024-11-24 16:20:50.506,1.394398654500115,0.970409431906776,0.8943242101931675,1.246716229642022,0.2951281050554641,0.4104617071194389,0.4538922110788783,0.851712894288415,0.8915250291925824,0.623894871717416,0.4801882374005821,1.042172945129516,0.8513350022751365,0.7691797650943653,0.2189094195521755,0.7153785569556589,0.120296014935088,0.5972212924617951,-0.02315244234086434,0.4682085318520561,993.6263736263736,825.6043956043957,799.4139194139194,980.3296703296703,414.6153846153846,-0.269226,0.152283,0.765747,-15.559235,8.553467,21.585541,1,4,1,1,2,70.000000
2024-11-24 16:20:50.850,,,,,,,,,,,,,,,,,,,,,,,,,,,,,,,,,,,,,,/muse/elements/blink
2024-11-24 16:20:51.014,1.394398654500115,1.096272715508428,1.06416463692126,1.246716229642022,0.2951281050554641,0.4829631136611389,0.6049865748216648,0.851712894288415,0.8915250291925824,0.6112504978234112,0.4916079356967987,1.042172945129516,0.8513350022751365,0.7584375599713222,0.2469203886984534,0.7153785569556589,0.120296014935088,0.5911233375310233,-0.2216044395119889,0.4682085318520561,757.1062271062272,819.1575091575091,790.1465201465202,1228.937728937729,832.8571428571429,-0.191833,0.193359,0.820435,-7.828217,-0.478516,30.064240,1,4,1,1,4,70.000000
2024-11-24 16:20:51.301,,,,,,,,,,,,,,,,,,,,,,,,,,,,,,,,,,,,,,/muse/elements/blink
2024-11-24 16:20:51.503,1.394398654500115,1.026266934250682,1.071446290840784,1.246716229642022,0.2951281050554641,0.494134677696963,0.7048619174476516,0.851712894288415,0.8915250291925824,0.3366400407557892,0.3947901839764162,1.042172945129516,0.8513350022751365,0.8727013115098011,0.2629284211720908,0.7153785569556589,0.120296014935088,0.7201460495770151,-0.1920762943284382,0.4682085318520561,822.3809523809524,805.0549450549451,800.6227106227107,800.6227106227107,1626.630036630037,-0.170532,0.137085,0.936340,0.807495,7.648773,8.867493,1,4,1,1,4,70.000000
2024-11-24 16:20:51.583,,,,,,,,,,,,,,,,,,,,,,,,,,,,,,,,,,,,,,/muse/elements/blink
2024-11-24 16:20:51.874,,,,,,,,,,,,,,,,,,,,,,,,,,,,,,,,,,,,,,/muse/elements/blink
2024-11-24 16:20:52.008,1.394398654500115,1.026266934250682,1.19356252557862,1.246716229642022,0.2951281050554641,0.494134677696963,0.8203229540419884,0.851712894288415,0.8915250291925824,0.3366400407557892,0.3279183889305954,1.042172945129516,0.8513350022751365,0.8727013115098011,0.3625359175558155,0.7153785569556589,0.120296014935088,0.7201460495770151,-0.2102469208777697,0.4682085318520561,1114.505494505494,800.6227106227107,792.967032967033,1220.07326007326,730.9157509157509,-0.311707,0.049805,0.968323,3.222504,-3.992615,-17.047119,1,4,1,1,4,70.000000
2024-11-24 16:20:52.317,,,,,,,,,,,,,,,,,,,,,,,,,,,,,,,,,,,,,,/muse/elements/blink
2024-11-24 16:20:52.516,1.394398654500115,1.026266934250682,1.19356252557862,1.246716229642022,0.2951281050554641,0.494134677696963,0.8203229540419884,0.851712894288415,0.8915250291925824,0.3366400407557892,0.3279183889305954,1.042172945129516,0.8513350022751365,0.8727013115098011,0.3625359175558155,0.7153785569556589,0.120296014935088,0.7201460495770151,-0.2102469208777697,0.4682085318520561,675.7142857142858,788.5347985347986,798.6080586080586,981.1355311355312,815.1282051282052,-0.329407,0.249573,1.034241,21.406097,5.286102,-15.476990,1,4,1,1,4,70.000000
2024-11-24 16:20:52.574,,,,,,,,,,,,,,,,,,,,,,,,,,,,,,,,,,,,,,/muse/elements/blink
2024-11-24 16:20:52.919,,,,,,,,,,,,,,,,,,,,,,,,,,,,,,,,,,,,,,/muse/elements/blink
2024-11-24 16:20:53.003,1.394398654500115,1.231269351457579,1.19356252557862,1.246716229642022,0.2951281050554641,1.058214443999805,0.8203229540419884,0.851712894288415,0.8915250291925824,1.067060172279597,0.3279183889305954,1.042172945129516,0.8513350022751365,1.021937204515043,0.3625359175558155,0.7153785569556589,0.120296014935088,0.6078245896885673,-0.2102469208777697,0.4682085318520561,1158.424908424908,765.1648351648352,830.8424908424909,1165.274725274725,1272.454212454212,-0.362976,0.131592,1.002380,5.271149,-2.848663,10.916138,1,2,1,1,4,70.000000
2024-11-24 16:20:53.297,,,,,,,,,,,,,,,,,,,,,,,,,,,,,,,,,,,,,,/muse/elements/blink
2024-11-24 16:20:53.503,1.394398654500115,1.231269351457579,1.19356252557862,1.246716229642022,0.2951281050554641,1.058214443999805,0.8203229540419884,0.851712894288415,0.8915250291925824,1.067060172279597,0.3279183889305954,1.042172945129516,0.8513350022751365,1.021937204515043,0.3625359175558155,0.7153785569556589,0.120296014935088,0.6078245896885673,-0.2102469208777697,0.4682085318520561,613.2600732600732,846.1538461538462,862.6739926739926,217.5824175824176,373.919413919414,-0.487305,0.147034,1.127380,0.254211,8.059998,-6.078644,1,4,1,1,4,70.000000
2024-11-24 16:20:53.699,,,,,,,,,,,,,,,,,,,,,,,,,,,,,,,,,,,,,,/muse/elements/blink
2024-11-24 16:20:54.011,1.394398654500115,1.231269351457579,1.19356252557862,1.246716229642022,0.2951281050554641,1.058214443999805,0.8203229540419884,0.851712894288415,0.8915250291925824,1.067060172279597,0.3279183889305954,1.042172945129516,0.8513350022751365,1.021937204515043,0.3625359175558155,0.7153785569556589,0.120296014935088,0.6078245896885673,-0.2102469208777697,0.4682085318520561,772.8205128205128,806.6666666666667,797.8021978021978,823.1868131868132,1239.41391941392,-0.541077,0.206360,1.468872,1.114044,-5.226288,15.297546,1,4,1,1,4,70.000000
2024-11-24 16:20:54.418,,,,,,,,,,,,,,,,,,,,,,,,,,,,,,,,,,,,,,/muse/elements/blink
2024-11-24 16:20:54.503,1.394398654500115,1.231269351457579,1.19356252557862,1.246716229642022,0.2951281050554641,1.058214443999805,0.8203229540419884,0.851712894288415,0.8915250291925824,1.067060172279597,0.3279183889305954,1.042172945129516,0.8513350022751365,1.021937204515043,0.3625359175558155,0.7153785569556589,0.120296014935088,0.6078245896885673,-0.2102469208777697,0.4682085318520561,680.1465201465202,844.1391941391942,853.8095238095239,342.0879120879121,308.2417582417582,-0.502502,0.184082,1.131348,13.069458,-1.330872,-3.469238,1,2,1,1,2,70.000000
2024-11-24 16:20:54.743,,,,,,,,,,,,,,,,,,,,,,,,,,,,,,,,,,,,,,/muse/elements/blink
2024-11-24 16:20:55.003,1.394398654500115,1.231269351457579,1.19356252557862,1.246716229642022,0.2951281050554641,1.058214443999805,0.8203229540419884,0.851712894288415,0.8915250291925824,1.067060172279597,0.3279183889305954,1.042172945129516,0.8513350022751365,1.021937204515043,0.3625359175558155,0.7153785569556589,0.120296014935088,0.6078245896885673,-0.2102469208777697,0.4682085318520561,811.5018315018315,799.4139194139194,806.2637362637363,803.8461538461539,22.16117216117216,-0.408569,0.224854,1.034363,3.192596,4.015045,-1.510315,1,2,1,1,4,70.000000
2024-11-24 16:20:55.025,,,,,,,,,,,,,,,,,,,,,,,,,,,,,,,,,,,,,,/muse/elements/blink
2024-11-24 16:20:55.353,,,,,,,,,,,,,,,,,,,,,,,,,,,,,,,,,,,,,,/muse/elements/blink
2024-11-24 16:20:55.506,1.394398654500115,1.231269351457579,1.19356252557862,1.246716229642022,0.2951281050554641,1.058214443999805,0.8203229540419884,0.851712894288415,0.8915250291925824,1.067060172279597,0.3279183889305954,1.042172945129516,0.8513350022751365,1.021937204515043,0.3625359175558155,0.7153785569556589,0.120296014935088,0.6078245896885673,-0.2102469208777697,0.4682085318520561,850.1831501831502,807.4725274725275,807.4725274725275,795.3846153846154,2.820512820512821,-0.389404,0.262329,1.011353,6.273041,-7.402039,4.620667,1,4,1,1,2,70.000000
2024-11-24 16:20:55.820,,,,,,,,,,,,,,,,,,,,,,,,,,,,,,,,,,,,,,/muse/elements/blink
2024-11-24 16:20:56.003,1.394398654500115,1.231269351457579,1.19356252557862,1.246716229642022,0.2951281050554641,1.058214443999805,0.8203229540419884,0.851712894288415,0.8915250291925824,1.067060172279597,0.3279183889305954,1.042172945129516,0.8513350022751365,1.021937204515043,0.3625359175558155,0.7153785569556589,0.120296014935088,0.6078245896885673,-0.2102469208777697,0.4682085318520561,589.4871794871796,820.7692307692308,809.8901098901099,735.7509157509157,5.641025641025641,-0.271179,0.143494,0.643799,-7.192688,13.734894,-11.618958,1,2,1,1,2,70.000000
2024-11-24 16:20:56.149,,,,,,,,,,,,,,,,,,,,,,,,,,,,,,,,,,,,,,/muse/elements/blink
2024-11-24 16:20:56.336,,,,,,,,,,,,,,,,,,,,,,,,,,,,,,,,,,,,,,/muse/elements/blink
2024-11-24 16:20:56.512,1.394398654500115,1.231269351457579,1.19356252557862,1.246716229642022,0.2951281050554641,1.058214443999805,0.8203229540419884,0.851712894288415,0.8915250291925824,1.067060172279597,0.3279183889305954,1.042172945129516,0.8513350022751365,1.021937204515043,0.3625359175558155,0.7153785569556589,0.120296014935088,0.6078245896885673,-0.2102469208777697,0.4682085318520561,722.8571428571429,818.3516483516484,795.3846153846154,672.893772893773,742.1978021978023,-0.355408,0.152771,0.743408,7.985229,6.078644,14.953613,1,4,1,1,2,70.000000
2024-11-24 16:20:57.013,1.394398654500115,0.8769539417201919,-0.01511157640254397,1.246716229642022,0.2951281050554641,-0.02480256060054983,-0.08844526158089537,0.851712894288415,0.8915250291925824,0.5153885142368461,0.2693115104944336,1.042172945129516,0.8513350022751365,0.6698858770861759,0.1980325056056191,0.7153785569556589,0.120296014935088,0.5071735616560727,-0.2080948274192108,0.4682085318520561,722.8571428571429,784.5054945054945,811.9047619047619,818.3516483516484,303.003663003663,-0.209778,0.149658,0.728577,-13.600311,-7.566528,1.525269,1,2,1,1,2,70.000000
2024-11-24 16:20:57.374,,,,,,,,,,,,,,,,,,,,,,,,,,,,,,,,,,,,,,/muse/elements/blink
2024-11-24 16:20:57.505,1.394398654500115,0.9522874498037223,0.5424028309791897,1.246716229642022,0.2951281050554641,0.3743576983812909,0.3565603568203827,0.851712894288415,0.8915250291925824,0.7270186179146253,0.7566055024513921,1.042172945129516,0.8513350022751365,0.6691679467753313,0.2613855681493455,0.7153785569556589,0.120296014935088,0.635303302048004,-0.1187643103072009,0.4682085318520561,717.2161172161173,835.6776556776557,855.8241758241759,784.5054945054945,655.9706959706959,-0.200256,0.144775,0.764771,18.893890,-21.189270,5.734711,1,4,1,1,2,70.000000
2024-11-24 16:20:57.564,,,,,,,,,,,,,,,,,,,,,,,,,,,,,,,,,,,,,,/muse/elements/blink
2024-11-24 16:20:57.798,,,,,,,,,,,,,,,,,,,,,,,,,,,,,,,,,,,,,,/muse/elements/blink
2024-11-24 16:20:58.002,1.394398654500115,1.13390950071612,0.5668255094324592,1.246716229642022,0.2951281050554641,0.8568005233679254,0.3772967330323937,0.851712894288415,0.8915250291925824,0.8556921517430225,0.7559252185667802,1.042172945129516,0.8513350022751365,0.6205169730870851,0.2645624704048535,0.7153785569556589,0.120296014935088,0.6179260337440662,-0.1119648833894036,0.4682085318520561,565.7142857142858,857.4358974358975,873.956043956044,646.7032967032967,1070.586080586081,-0.278809,0.236145,0.985352,5.824432,-9.203949,-3.274841,1,2,1,1,2,70.000000
2024-11-24 16:20:58.513,1.394398654500115,1.230161448013052,0.8614035696326463,1.246716229642022,0.2951281050554641,1.027821269110948,0.6491761371203086,0.851712894288415,0.8915250291925824,0.8556921517430225,0.7279853455600325,1.042172945129516,0.8513350022751365,0.5904531330276347,0.3418686367384211,0.7153785569556589,0.120296014935088,0.6690992878902084,-0.01193680399938349,0.4682085318520561,736.5567765567765,796.5934065934066,792.5641025641025,785.7142857142858,278.4249084249084,-0.372986,0.199829,1.022949,-3.798218,7.035675,1.398163,1,2,1,1,2,70.000000
2024-11-24 16:20:58.574,,,,,,,,,,,,,,,,,,,,,,,,,,,,,,,,,,,,,,/muse/elements/blink
2024-11-24 16:20:59.008,1.394398654500115,1.402118528467786,0.8614035696326463,1.246716229642022,0.2951281050554641,1.284418961968126,0.6491761371203086,0.851712894288415,0.8915250291925824,0.8221515714566533,0.7279853455600325,1.042172945129516,0.8513350022751365,0.4678758340666694,0.3418686367384211,0.7153785569556589,0.120296014935088,0.5711734378004143,-0.01193680399938349,0.4682085318520561,874.3589743589744,768.7912087912088,815.5311355311355,930.3663003663004,1563.369963369963,-0.245850,0.217712,0.988525,27.320251,-22.998657,-69.870758,1,2,1,1,2,70.000000
