TimeStamp,Delta_TP9,Delta_AF7,Delta_AF8,Delta_TP10,Theta_TP9,Theta_AF7,Theta_AF8,Theta_TP10,Alpha_TP9,Alpha_AF7,Alpha_AF8,Alpha_TP10,Beta_TP9,Beta_AF7,Beta_AF8,Beta_TP10,Gamma_TP9,Gamma_AF7,Gamma_AF8,Gamma_TP10,RAW_TP9,RAW_AF7,RAW_AF8,RAW_TP10,AUX_RIGHT,AUX_LEFT,Accelerometer_X,Accelerometer_Y,Accelerometer_Z,Gyro_X,Gyro_Y,Gyro_Z,HeadBandOn,HSI_TP9,HSI_AF7,HSI_AF8,HSI_TP10,Battery,Elements
2024-12-18 12:53:23.205,,,,,,,,,,,,,,,,,,,,,,,,,,,,,,,,,,,,,,,/muse/event/connected MuseS-9CF6
2024-12-18 12:53:23.706,1.415812306424139,0.6945865695795115,0.1630299561275105,1.563888575602862,1.352759103824327,0.3054953943314386,0.2266497330287688,1.532276839722086,0.8823450958531306,0.4254999122620133,0.3430075851579173,1.165471917204225,0.7580418715152325,0.6993946569505823,0.7780169048762822,1.056468487368815,0.6726506542121208,0.4355575114278862,0.5504636143242615,0.8291211123881498,807.4725274725275,813.5164835164835,808.6813186813187,805.0549450549451,733.7362637362637,610.8424908424909,-0.576843,-0.030151,0.801208,-0.000000,2.295380,-3.020630,1,2,1,1,2,83.000000
2024-12-18 12:53:24.215,0.8800644961271513,0.06054706625133423,0.1205965049753056,1.563888575602862,0.2405851106385929,0.1411915232651376,0.2235847403374583,1.532276839722086,0.3949335547051641,0.2390949961244015,0.3595324554357803,1.165471917204225,0.5617092575153518,0.6407706720495792,0.7031498053352336,1.056468487368815,0.5217591942252046,0.4783835406894645,0.5371955587039213,0.8291211123881498,815.934065934066,814.3223443223443,817.1428571428571,801.4285714285714,822.7838827838829,688.2051282051282,-0.554871,-0.006531,0.819824,2.205658,-1.712189,-0.194397,1,1,1,1,1,83.000000
2024-12-18 12:53:24.706,0.7488960439767882,-0.2615180755812331,-0.1196279652159568,0.339022941725055,0.3101980684684565,-0.3800052760860296,-0.07316679169002623,0.2814153510700778,0.6502405395804159,0.3220789843942559,0.4576669061966569,0.7979603893870115,0.7982532559662614,0.4298374604183819,0.6155429510372609,0.8115144866672511,0.5991821298668919,0.3602058104013354,0.5067706004748803,0.7345856827179584,785.7142857142858,799.4139194139194,789.7435897435897,794.981684981685,800.6227106227107,658.3882783882784,-0.563599,-0.000549,0.813782,-0.388794,-0.448608,0.583191,1,1,1,1,1,83.000000
2024-12-18 12:53:25.205,0.6528244507808012,-0.06237529379023288,-0.1729064649883958,0.5686348484523265,0.3156641397920092,-0.318045356941523,-0.2336152757183843,0.3908321007775135,0.64762934424725,0.3498867593060339,0.3932025152380499,0.8255598330412428,0.8304540422710022,0.5074912604925231,0.6007141882068031,0.8421848903582488,0.6097729738505459,0.2838935223740916,0.5610955620662025,0.6814346300038848,821.1721611721612,812.7106227106227,800.6227106227107,805.4578754578755,791.7582417582418,711.1721611721612,-0.560425,-0.005920,0.821472,0.224304,-2.265472,1.824341,1,1,1,1,1,83.000000
2024-12-18 12:53:25.706,0.4313961128958373,0.1914955731579152,-0.05462700099579259,0.5925682340277594,0.3536765248778478,-0.1084342595004812,-0.1735547758074852,0.4489389787591272,0.6001155300551477,0.4349559244224904,0.3672479321414035,0.8062153164943995,0.9534583769145938,0.5150708313142798,0.6727261394872017,0.8544169500428852,0.6654025025919181,0.2329943735687592,0.5344062823995865,0.6717772501525112,790.952380952381,798.2051282051282,788.5347985347986,792.1611721611722,873.1501831501831,728.0952380952381,-0.566528,-0.010986,0.793762,0.418701,-2.011261,-0.104675,1,1,1,1,1,83.000000
2024-12-18 12:53:26.206,0.3491652050368721,0.1145823909391315,-0.02666279921087,0.8290067540863696,0.2589298569808268,-0.1029634943493861,-0.2005805253379329,0.550825977782655,0.4102539056632247,0.4143175584534938,0.2282963351603479,0.7509993253248661,0.7141686709220871,0.5580092196699951,0.6411954742829343,0.8977048158318299,0.4302075093764162,0.2607907594440759,0.4739838414912969,0.5504445220386894,796.5934065934066,797.8021978021978,796.996336996337,794.5787545787546,811.5018315018315,651.5384615384615,-0.562073,-0.016357,0.812500,-0.702820,-0.717773,1.196289,1,1,1,1,1,83.000000
2024-12-18 12:53:26.706,0.5324799566361469,0.03602338270428528,-0.05066223301766587,0.8290067540863696,0.1858143814136514,-0.1609453891296763,-0.3299919761334538,0.550825977782655,0.4505210679399296,0.3145391505370536,0.2418876429782252,0.7509993253248661,0.7152099342634232,0.4719644837689648,0.690420352458341,0.8977048158318299,0.2359446657133771,0.3400644014115722,0.3430454112480826,0.5504445220386894,807.0695970695971,806.6666666666667,810.6959706959707,796.1904761904763,994.0293040293041,969.8534798534798,-0.554138,0.001038,0.758240,1.413116,-5.764618,-0.448608,1,1,1,1,1,83.000000
2024-12-18 12:53:27.216,0.4522637407224561,-0.2590665941729862,-0.270198161758994,0.1894789274576347,0.3425169104741332,-0.5334092075028933,-0.3224801602557222,0.1424505122274048,0.4791218453262899,0.2215127368964517,0.3387230902273284,0.9472145448870843,0.7282873001570311,0.4733950956474343,0.6494080593448336,0.9751680385948428,0.3099898384951695,0.3331972674149593,0.3779236529918202,0.4204729302883119,770.4029304029305,803.4432234432235,818.7545787545788,799.0109890109891,817.5457875457876,659.1941391941392,-0.746216,-0.007263,0.911011,1.405640,6.123505,-1.742096,1,1,1,1,1,83.000000
2024-12-18 12:53:27.484,,,,,,,,,,,,,,,,,,,,,,,,,,,,,,,,,,,,,,,/muse/elements/blink
2024-12-18 12:53:27.706,0.4592516002576367,-0.08207878066987674,-0.2798704997285161,0.1894789274576347,0.3694300865319416,-0.2000345301847111,-0.04257384904286905,0.1424505122274048,0.4798879514334473,0.7743558832120551,0.5462670069212077,0.9472145448870843,0.7582576083585922,0.4537062728691577,0.6490903090332497,0.9751680385948428,0.3493647692004409,0.3854698374638977,0.398117955335211,0.4204729302883119,822.7838827838829,821.5750915750916,820.7692307692308,840.9157509157509,668.0586080586081,563.6996336996338,-0.515747,-0.029236,0.791809,1.899109,-3.514099,0.538330,1,1,1,1,1,83.000000
2024-12-18 12:53:28.206,0.330979992756858,0.02920431901862012,-0.1356159664782229,0.09740118058524067,0.4955755254102426,0.1920436073957066,0.1930991724753097,0.2686625417016746,0.3837156969851347,1.00015295554067,0.5586500415909649,0.9154504889972486,0.7240169450190189,0.8607423426193336,0.7482240389555234,0.9794255277065591,0.4162258824820276,0.6829538427482709,0.6528401257898624,0.4850111015003412,774.8351648351648,793.7728937728938,799.4139194139194,792.967032967033,807.0695970695971,695.4578754578755,-0.489319,0.030884,0.772339,-0.142059,-5.173950,-4.882355,1,1,1,1,1,83.000000
2024-12-18 12:53:28.706,0.3956385514215343,0.232266594647186,0.2072329057375471,0.09770446349531425,0.5116898512735213,0.3057205047139463,0.3779327436817366,0.3261591859555892,0.3562413165569195,1.00633324542257,0.5108800777232417,0.8985349154919078,0.6283432532331273,0.9284747182887358,0.7844769967001585,0.9975372426399955,0.4744960541675604,0.7597882988604072,0.6961937230407718,0.5165952303028783,882.8205128205128,801.025641025641,777.2527472527473,887.2527472527473,1155.604395604396,1137.069597069597,-0.510742,-0.031006,0.852600,-9.091797,0.441132,1.286011,1,1,1,1,1,83.000000
2024-12-18 12:53:28.716,,,,,,,,,,,,,,,,,,,,,,,,,,,,,,,,,,,,,,,/muse/elements/blink
2024-12-18 12:53:29.206,0.3956385514215343,0.464515527163097,0.493672316080891,0.09770446349531425,0.5116898512735213,0.3888535511330201,0.5129011727519293,0.3261591859555892,0.3562413165569195,1.028723355269954,0.8616181423935263,0.8985349154919078,0.6283432532331273,0.9404491714411628,0.8623208802638114,0.9975372426399955,0.4744960541675604,0.782736827634854,0.7119760848215824,0.5165952303028783,796.5934065934066,797.8021978021978,811.9047619047619,800.6227106227107,903.3699633699634,933.992673992674,-0.612915,-0.013000,0.842712,4.254303,7.230072,-8.934784,1,1,1,1,1,83.000000
2024-12-18 12:53:29.710,0.3956385514215343,0.6043273798172984,0.6128018720819075,0.09770446349531425,0.5116898512735213,0.2081962315889683,0.508028001284307,0.3261591859555892,0.3562413165569195,0.5868820379770154,0.9338316683418053,0.8985349154919078,0.6283432532331273,0.713174557499078,0.866410455332835,0.9975372426399955,0.4744960541675604,0.654161358000578,0.684267600689007,0.5165952303028783,796.1904761904763,783.2967032967033,778.8644688644689,799.4139194139194,784.5054945054945,434.7619047619048,-0.556946,-0.069580,0.767517,2.684174,-3.566437,-0.142059,1,1,1,1,1,83.000000
2024-12-18 12:53:30.206,0.3956385514215343,0.6021795527962767,0.5368360229132596,0.09770446349531425,0.5116898512735213,0.1095143797881193,0.4044951461457202,0.3261591859555892,0.3562413165569195,0.4823624177318461,0.9796910412881381,0.8985349154919078,0.6283432532331273,0.6135316376682174,0.8496849152536364,0.9975372426399955,0.4744960541675604,0.521706544735363,0.627107352978625,0.5165952303028783,809.0842490842491,790.5494505494506,807.8754578754579,812.3076923076924,949.3040293040293,1026.666666666667,-0.634705,-0.033325,0.847778,-2.302856,-2.766418,-0.934601,1,2,1,1,2,83.000000
2024-12-18 12:53:30.706,0.6274551550597047,0.4707382720920291,0.4903276269069791,0.5875111736668863,0.3955056872825022,0.06554018217460442,0.2639452853963208,0.7029747853797742,0.6197652579944407,0.5205751152091058,0.9856508828722662,0.9389216514653981,0.8940316468278424,0.6328370668322842,0.7867971714407231,1.073754992102402,0.5349710941543129,0.5654700035145994,0.5549525179641346,0.7407379499957741,808.2783882783883,809.0842490842491,799.0109890109891,802.6373626373627,403.3333333333334,18.13186813186813,-0.552063,-0.002441,0.777222,-1.300964,-2.078552,0.074768,1,1,1,1,1,83.000000
2024-12-18 12:53:31.206,0.6390954028385987,0.3565126466367297,0.3662626411777609,0.6670116465326633,0.5225602260793951,0.2364668553266453,0.2968504353100291,0.6781947008581889,0.7294321617882311,0.6487498762037854,0.7040281073369556,1.043633516989229,0.8292389735463893,0.554151833419373,0.8112909063531881,1.090084478199872,0.4626993219016051,0.6014332637329254,0.4337370379724744,0.6867405325835928,793.3699633699634,803.8461538461539,809.8901098901099,780.8791208791209,407.7655677655678,16.92307692307692,-0.558228,-0.014587,0.730103,2.773895,-5.802002,-1.600037,1,1,1,1,1,83.000000
2024-12-18 12:53:31.718,0.4927612177251398,0.3119864706693945,0.5892953048120649,0.6003563388049827,0.5669714986472019,0.3140212663342348,0.4320641336251246,0.5236685431644182,0.8533391373606836,0.8291178116066907,0.77597107437263,1.023201789065257,0.7212430030020777,0.4554582538716241,0.8183029895826969,0.9859328149506009,0.4393025849132599,0.5887417129481732,0.4184566309289492,0.6192516663569547,814.3223443223443,799.8168498168499,794.1758241758242,794.1758241758242,730.1098901098901,437.1794871794872,-0.491272,-0.043091,0.709778,-1.143951,-0.568237,0.403748,1,1,1,1,1,83.000000
2024-12-18 12:53:32.206,0.3402816985450427,0.3613945064884053,0.5262740494754012,0.531363614347477,0.5209240418669444,0.2692285042000758,0.4685651473043649,0.5462011570279264,0.8239699440028166,0.8291178116066907,0.7458227034032904,1.065464937792908,0.5433030069609671,0.3746279647910681,0.8228788270862056,0.9204167737861747,0.4718511807255328,0.4727978113700828,0.3997041890005955,0.4589638243089185,787.3260073260074,801.8315018315019,815.934065934066,790.5494505494506,886.8498168498169,866.3003663003664,-0.468506,-0.058777,0.695190,2.654266,-14.557343,1.921539,1,1,1,1,1,83.000000
2024-12-18 12:53:32.706,0.571111113544757,0.3834757855059879,0.5543134862362477,0.5510841512037443,0.5974168907891444,0.2985124310346159,0.4725427786866762,0.4960888459339748,0.879459940493123,0.788999758417349,0.690503474731581,0.9557052568546602,0.4755123952825595,0.5049566270317852,0.6835929347023658,0.7193062992372665,0.4843171322342882,0.2687131028621147,0.2543569766869063,0.3992470029048378,808.2783882783883,799.0109890109891,801.4285714285714,809.4871794871796,882.8205128205128,725.2747252747253,-0.552002,0.036621,0.762817,-0.500946,1.562653,4.530945,1,1,1,1,1,83.000000
2024-12-18 12:53:33.217,0.7582444253017663,0.4621469862551155,0.3109720130196567,0.6580152086427179,0.6212345999156813,0.2525366832426728,0.4096735648912483,0.4880354604913863,0.8093447580428161,0.4686120248500808,0.6983956900949796,0.8601481050293804,0.4749816792479525,0.4936955690474988,0.6992289745419494,0.6988978489075957,0.4336407798188696,0.2071477953128078,0.1751696292877987,0.3767145547727347,812.7106227106227,803.040293040293,803.8461538461539,821.1721611721612,1183.003663003663,1483.589743589744,-0.517944,-0.052673,0.820435,-6.833801,4.987030,3.865509,1,1,1,1,1,83.000000
2024-12-18 12:53:33.706,0.8178495031621474,0.3935863608133029,0.2291802289121178,0.6503586720487389,0.6067933418733793,0.2327358124768264,0.470041277746919,0.5103328261204486,0.7796973938248972,0.2786251923377334,0.6309121042857375,1.052447313175342,0.6024365283362081,0.5068798738131807,0.6811533658682929,0.676865199062234,0.3887554264170926,0.2549168538543006,0.2679616211202753,0.5256243678208877,819.96336996337,787.7289377289378,790.1465201465202,798.6080586080586,909.0109890109891,867.5091575091575,-0.583496,0.011108,0.972534,0.186920,4.059906,1.996307,1,1,1,1,1,83.000000
2024-12-18 12:53:34.210,0.6421320626194374,0.2920216413365202,0.1960784768758014,0.634598172218013,0.2971814538105397,0.0602314600015093,0.4431072646865418,0.6136565880997946,0.7197920605016982,0.2634441316533648,0.8214468142670942,1.072387010839846,0.6839790402354009,0.3917819934065994,0.6830982867844094,0.7142114003404667,0.3492518315634517,0.3173974560161998,0.4696413957147774,0.5312100300870013,802.6373626373627,798.6080586080586,811.5018315018315,805.0549450549451,820.3663003663004,587.8754578754579,-0.674438,-0.026428,1.102966,4.515991,6.130981,-4.859924,1,1,1,1,1,83.000000
2024-12-18 12:53:34.711,0.4392126172825043,0.149964286968039,0.1639807181101167,0.5779476808951679,0.1411618607619185,0.0558395980527443,0.4504564264814508,0.6858298311372291,0.3938068361707946,0.290456346514392,0.8330591525753424,1.214354601170882,0.7558219650975163,0.3648115895692096,0.6342355475290301,0.7666838465232668,0.2956140536187786,0.3649747342692284,0.5186145153516911,0.605014550448584,798.2051282051282,804.6520146520147,795.7875457875458,802.2344322344322,765.5677655677656,823.992673992674,-0.614319,-0.046814,0.806946,0.770111,5.854340,1.525269,1,1,1,1,1,83.000000
2024-12-18 12:53:35.206,0.512105682047596,0.2609967924298842,0.2560853224937242,0.6005220678973452,0.1672739819350203,0.03344758388014462,0.4637976960084864,0.6640302892401718,0.3753275872755968,0.2506414828240915,0.8178412763653503,1.171779511030208,0.7306034095743658,0.3691747931576677,0.651005229606791,0.7928771691076408,0.2244872229258182,0.2889807730505154,0.5487719586200835,0.6128252399672489,806.2637362637363,802.6373626373627,794.1758241758242,788.1318681318681,466.996336996337,0,-0.512817,-0.041016,0.714722,-2.265472,0.358887,0.942078,1,1,1,1,1,83.000000
2024-12-18 12:53:35.706,0.3648690047572736,0.2422024091196804,0.3238644219052096,0.4598236873368288,0.2408754633801518,0.01784313931131567,0.4331573447264493,0.6732565777329745,0.4159326440836697,0.229201921180071,0.7064800881211827,1.127705121186086,0.6970538384435049,0.4350654658657673,0.7060718316618966,0.7906472124770565,0.2429305550240504,0.2399816741190657,0.5120326078098837,0.6218847675961934,802.6373626373627,797.3992673992674,770.8058608058608,814.7252747252747,626.1538461538462,386.4102564102564,-0.483643,-0.015625,0.702698,0.044861,0.029907,10.430145,1,1,1,1,1,83.000000
2024-12-18 12:53:36.212,0.5344013220610361,0.2636986816916592,0.4062967863715841,0.3464838750798013,0.7677689203219183,0.3876444343952417,0.4910290612075043,0.6495621468173695,0.8196565228633742,0.6127850689398494,0.6239829677493162,1.104800986138208,0.7893930571129851,0.6096842382213032,0.8182406336898292,0.8948853730732736,0.4065272108793317,0.305424329467147,0.5922394734322535,0.5510219398146348,801.8315018315019,791.7582417582418,788.5347985347986,815.5311355311355,764.7619047619048,539.5238095238095,-0.469055,0.042236,0.757935,-3.745880,-8.762817,1.772003,1,1,1,1,1,83.000000
2024-12-18 12:53:36.706,0.4681995529397069,0.2771937771261034,0.4037388988421609,0.314075995734838,0.8260158846482916,0.4313339655264362,0.4485435444294341,0.6502550638102185,0.8248727191737905,0.6127850689398494,0.7514575896229364,1.108887337830412,0.8060364505764586,0.6327619620499733,0.8544677708713957,0.9041077886941596,0.4892916925215617,0.3964200785889688,0.6430612260899106,0.5084039169961793,865.8974358974359,791.3553113553114,785.7142857142858,846.959706959707,1129.41391941392,1129.81684981685,-0.474365,-0.058899,0.871216,-7.491760,-3.970184,8.501129,1,1,1,1,1,83.000000
2024-12-18 12:53:36.725,,,,,,,,,,,,,,,,,,,,,,,,,,,,,,,,,,,,,,,/muse/elements/blink
2024-12-18 12:53:37.206,0.5944707225793151,0.4154596267015214,0.6471126167082926,0.2604647427385814,0.9889544203074899,0.5728336369505382,0.4463936999500504,0.563275403159423,0.8248727191737905,0.6100218311881868,0.7597904074409071,1.079782400254275,0.8913458755636654,0.7408431424584113,0.9823500403131358,0.9665920172453538,0.566574642656836,0.5503429382381654,0.7237600027432601,0.472971684991808,797.3992673992674,792.1611721611722,815.1282051282052,803.040293040293,1126.593406593407,1303.076923076923,-0.550293,0.029114,0.764160,4.994507,2.856140,-5.502930,1,1,1,1,1,83.000000
2024-12-18 12:53:37.706,0.4674770403911899,0.3994235925543773,0.6932895000595497,0.1906311305975185,0.6922748965193414,0.430685850289691,0.2972818981884326,0.2992048328252035,0.6505592213706721,0.4801981768111769,0.7748170522955651,1.042301756497523,0.6754871861085159,0.8084095072663244,1.051726436267665,0.9261478028184434,0.5931171013571347,0.6443181317814866,0.9204218991447246,0.5809730371261261,790.5494505494506,806.2637362637363,800.2197802197802,799.4139194139194,800.2197802197802,847.3626373626374,-0.636230,0.003418,0.944763,2.811279,-2.325287,1.510315,1,1,1,1,1,83.000000
2024-12-18 12:53:37.931,,,,,,,,,,,,,,,,,,,,,,,,,,,,,,,,,,,,,,,/muse/elements/blink
2024-12-18 12:53:38.205,0.4674770403911899,0.4777399587286996,0.7573182150765227,0.1906311305975185,0.6922748965193414,0.6141020747827274,0.256876831189122,0.2992048328252035,0.6505592213706721,0.6070106514287233,0.7670902250797794,1.042301756497523,0.6754871861085159,0.8750147904364661,1.125959948621073,0.9261478028184434,0.5931171013571347,0.7077064916023336,0.9944400379219993,0.5809730371261261,814.3223443223443,817.1428571428571,830.8424908424909,817.1428571428571,1041.575091575092,1156.813186813187,-0.618469,-0.019165,0.863098,1.786957,4.022522,-3.798218,1,1,1,1,1,83.000000
2024-12-18 12:53:38.719,0.4674770403911899,0.6396912291889877,0.5395383102488599,0.1906311305975185,0.6922748965193414,0.7306645296652845,0.2045054583656374,0.2992048328252035,0.6505592213706721,0.6331282137446916,0.7270353590618284,1.042301756497523,0.6754871861085159,0.8592333350706344,1.114812119531442,0.9261478028184434,0.5931171013571347,0.6602790608239119,1.077720222333511,0.5809730371261261,804.2490842490843,808.2783882783883,801.8315018315019,816.3369963369963,616.4835164835165,422.2710622710623,-0.552002,0.055969,0.775513,-2.078552,1.570129,3.222504,1,1,1,1,1,83.000000
2024-12-18 12:53:39.213,0.4674770403911899,0.5894192895024897,0.4064781846994766,0.1906311305975185,0.6922748965193414,0.6724690054841256,0.2067213893867478,0.2992048328252035,0.6505592213706721,0.6144900534124633,0.5249261151182252,1.042301756497523,0.6754871861085159,0.7606309790082193,0.9672737384407174,0.9261478028184434,0.5931171013571347,0.5471832513118327,0.8587784752817308,0.5809730371261261,802.6373626373627,806.2637362637363,782.893772893773,805.4578754578755,190.989010989011,0.8058608058608059,-0.513550,-0.005493,0.769775,1.241150,-1.405640,2.773895,1,2,1,1,2,83.000000
2024-12-18 12:53:39.706,0.0737624379633339,0.4513928877088967,0.7279137138699896,0.5556208333131761,0.1123042664192804,0.4762712932674161,0.5236705609029968,0.8044217259752703,0.3172039596467592,0.6050002006676585,0.5819587710144399,0.7908480196560289,0.5830339382578072,0.6788318675765826,0.8425285688710421,0.7823582971160478,0.3390388504493563,0.3606596440527881,0.7091454937424221,0.5130246418479431,791.3553113553114,802.6373626373627,796.1904761904763,786.1172161172161,596.7399267399268,242.1611721611722,-0.487915,0.033447,0.722290,1.091614,-3.229980,-6.437531,1,1,1,1,1,83.000000
2024-12-18 12:53:40.127,,,,,,,,,,,,,,,,,,,,,,,,,,,,,,,,,,,,,,,/muse/elements/blink
2024-12-18 12:53:40.127,,,,,,,,,,,,,,,,,,,,,,,,,,,,,,,,,,,,,,,/muse/elements/jaw_clench
2024-12-18 12:53:40.215,0.08609373608849236,-0.003616377959405409,0.7602557832237532,0.5508168800804085,0.09693286771961536,-0.1128361112749036,0.6592043971181112,0.8401641251954339,0.3359584452527117,0.1314045403314096,0.6738674971169953,0.7989909240173829,0.5616471543441557,0.5763754027425239,0.7929833343842473,0.8064527143583198,0.3084168262014421,0.2921201290931443,0.6317174682754714,0.4838232976036576,814.3223443223443,798.2051282051282,786.5201465201466,823.1868131868132,842.5274725274726,589.0842490842491,-0.513489,-0.016052,0.726685,-1.091614,-8.942261,10.056305,1,1,1,1,1,83.000000
2024-12-18 12:53:40.279,,,,,,,,,,,,,,,,,,,,,,,,,,,,,,,,,,,,,,,/muse/elements/blink
2024-12-18 12:53:40.279,,,,,,,,,,,,,,,,,,,,,,,,,,,,,,,,,,,,,,,/muse/elements/jaw_clench
2024-12-18 12:53:40.716,0.0876856859027723,0.1476355035610882,0.8616614408179617,0.569659499886382,0.06662311164982487,0.05648471303944298,0.7670449055786456,0.8507630121289758,0.3265199005173344,0.03593095604519005,0.6738674971169953,0.796849826710039,0.5371500899745304,0.5397100046226015,0.802344872604337,0.8230286289674414,0.2602172638524641,0.2018045601974539,0.5884824600092521,0.4319816270152955,803.4432234432235,796.996336996337,776.8498168498169,790.952380952381,1195.091575091575,1228.131868131868,-0.508240,0.021362,0.813293,-2.758942,3.215027,-7.873077,1,1,1,1,1,83.000000
2024-12-18 12:53:41.206,0.1137623518938095,0.2998113098940892,0.8984140092830369,0.5782476766062322,0.03210919960152421,0.1126540262355167,0.8099861272133799,0.8486891763608504,0.2226506011842875,-0.1549549756680886,0.596781384417959,0.7182372023449631,0.453172567135382,0.467585543791166,0.7707476171675646,0.8465740028002334,0.1371666712066071,0.2648549422183086,0.5311278492020445,0.2816748945529144,821.978021978022,819.5604395604396,856.6300366300367,859.8534798534798,1622.197802197802,1622.197802197802,-0.506104,-0.077026,0.844971,-6.033783,-8.224487,4.254303,1,1,1,1,1,83.000000
2024-12-18 12:53:41.706,0.7011843005363201,0.6147189567865381,0.8984140092830369,0.5782476766062322,0.7778157682911205,0.8175183047476112,0.8099861272133799,0.8486891763608504,0.9037038145564613,0.7255760313581581,0.596781384417959,0.7182372023449631,1.066674514601637,0.9056061850335619,0.7707476171675646,0.8465740028002334,0.7673506882272358,0.8116201032311462,0.5311278492020445,0.2816748945529144,798.2051282051282,790.5494505494506,815.5311355311355,788.9377289377289,734.9450549450549,543.1501831501831,-0.554504,0.004517,0.868469,0.897217,5.136566,-10.131073,1,1,1,1,1,83.000000
2024-12-18 12:53:42.216,0.6174875377701063,0.5549601561736579,0.8984140092830369,0.8589022689259381,0.6341619700797411,0.8096849215246277,0.8099861272133799,1.135730514309613,0.9037038145564613,0.7381233070050005,0.596781384417959,1.339503199901867,0.9113201376769298,0.8868328971856075,0.7707476171675646,0.9155597312016154,0.7474248099681898,0.745755130433127,0.5311278492020445,0.9922699571039819,783.2967032967033,796.5934065934066,804.6520146520147,799.4139194139194,1047.619047619048,1351.831501831502,-0.799011,-0.073608,1.075684,2.572021,7.424469,-5.016937,1,1,1,1,1,83.000000
2024-12-18 12:53:42.706,0.5310070959591753,0.4655161721246391,0.8984140092830369,0.8823870652026209,0.5279976260855757,0.6869724436804047,0.8099861272133799,1.088520047207684,0.9037038145564613,0.7459221848307718,0.596781384417959,1.415141247947598,0.8771956267330369,0.8228434881210621,0.7707476171675646,1.07310773585959,0.699328440572786,0.6210223200585904,0.5311278492020445,0.9446140651818632,785.3113553113553,795.3846153846154,808.6813186813187,805.0549450549451,998.4615384615385,1452.161172161172,-0.598755,-0.067261,0.870117,-0.291595,4.358978,-1.353302,1,1,1,1,1,83.000000
2024-12-18 12:53:43.205,0.4006471853782451,0.3796427177229276,0.8984140092830369,0.8368424884474743,0.4154226640688421,0.421912812649939,0.8099861272133799,1.037033925603643,0.8355930750584787,0.6549503856855932,0.596781384417959,1.415141247947598,0.7609983910049901,0.6362990727099066,0.7707476171675646,1.047047812593585,0.6192187000168075,0.3972161735458419,0.5311278492020445,0.9228267806410156,802.6373626373627,803.040293040293,805.4578754578755,806.2637362637363,0,0,-0.523071,0.000610,0.802246,-0.381317,0.598145,-2.938385,1,1,1,1,1,83.000000
2024-12-18 12:53:43.710,0.2240809063864312,0.4301057975258246,1.144826153335998,0.7685515294959153,0.3184616538539118,0.5296911570145955,0.930091135117128,0.9544216478917559,0.6813562264082307,0.6549503856855932,0.6469730916022806,1.419113349387738,0.6473308070001857,0.5848352735930175,0.6760707963093781,1.085863572114028,0.5030774119808599,0.3808929132615314,0.5312648153312519,0.8411845621212894,810.6959706959707,806.2637362637363,792.1611721611722,779.6703296703297,1.208791208791209,0,-0.492004,-0.022888,0.713562,-0.949554,-3.671112,2.609406,1,1,1,1,1,83.000000
2024-12-18 12:53:44.205,0.208020810790627,0.4376247354485486,1.123701843509548,0.7229116943610255,0.5141338406142818,0.6406497342444015,0.886683775039024,0.982603734760544,0.5425641628095661,0.365734441837295,0.6161562979921072,1.080823794986088,0.5179683315463973,0.5485431500561057,0.6318172450518532,1.003252877712433,0.5463515771877806,0.5222004042960301,0.5358514971804432,0.7679746154199215,817.5457875457876,810.2930402930403,791.3553113553114,828.8278388278388,595.934065934066,103.1501831501832,-0.486755,0.029297,0.734985,-3.013153,-13.084412,-1.031799,1,1,1,1,1,83.000000
2024-12-18 12:53:44.713,0.4221074292801805,0.4182626614706183,1.107499512949674,0.8048559585250359,0.5178198503863676,0.7210581256811655,1.124101273279618,1.010365438177636,0.5055536222568755,0.4348646598361569,0.7219150158209016,1.01860082571044,0.4238548332353048,0.5638342017695409,0.6635666772890347,0.9755048701966167,0.5534365065617548,0.5907623550511643,0.545711091750037,0.6808887841396321,793.7728937728938,797.3992673992674,796.996336996337,803.040293040293,1238.205128205128,1349.81684981685,-0.467285,-0.054077,0.726929,-6.901093,-11.043243,12.261963,1,1,1,1,1,83.000000
2024-12-18 12:53:45.206,0.4560966418025364,0.394038781885425,1.176565020569028,0.8912104228522798,0.4294805995646171,0.6681977480850452,1.181348126969859,1.06449081178571,0.5378051562870009,0.4371483442938983,0.6733646086370113,0.9689431981905601,0.4296242521961471,0.5703613545045341,0.7205012118907553,0.9540770357785366,0.559360389455571,0.6486219935230985,0.5562380398409982,0.6636644633569692,815.934065934066,797.3992673992674,828.4249084249085,822.3809523809524,1620.586080586081,1622.197802197802,-0.583252,-0.003174,0.734619,7.297363,12.912445,-9.839478,1,1,1,1,1,83.000000
2024-12-18 12:53:45.706,0.4913792604687282,0.3793204853104785,1.153680151721368,0.9256394380828791,0.2093146539867466,0.517939397515595,1.200392192372016,0.937401443074209,0.6777781222011637,0.4099841641000693,0.6733646086370113,0.9672068174757906,0.5175397629845043,0.4515079631638366,0.7169688906138958,0.9905933898646438,0.4833700153412038,0.540834217517817,0.5311664400034635,0.730088557684057,771.6117216117216,785.3113553113553,826.4102564102565,764.3589743589744,992.8205128205128,1052.857142857143,-0.508606,-0.125793,0.815308,0.508423,-9.121704,-0.366364,1,1,1,1,1,83.000000
2024-12-18 12:53:46.210,0.5067584762835842,0.2597038998089262,1.160152062200798,0.9073575758831717,0.4805725900540426,0.437021954747207,1.218603434529359,0.8839528143394909,0.8694343626141442,0.3507640551919537,0.6733646086370113,1.009746032247003,0.7676245779447066,0.4819154058954923,0.7163185625175208,1.080302787444319,0.5903808266586976,0.4406700256411634,0.5171993756986141,0.8375167707924123,787.7289377289378,793.3699633699634,786.5201465201466,812.3076923076924,863.0769230769231,1005.714285714286,-0.699097,-0.071716,1.015564,4.201965,-1.293488,-3.514099,1,1,1,1,1,83.000000
2024-12-18 12:53:46.706,0.5490929949875849,0.1432934984449524,1.160152062200798,0.826380921328425,0.5891647010711386,0.3718040757139571,1.218603434529359,0.7099216099152199,0.8453965081817927,0.3333716146979611,0.6733646086370113,1.135736763210561,0.9007705894873226,0.6280205434939384,0.7163185625175208,1.17000500922457,0.7317328944308582,0.4631978494416635,0.5171993756986141,0.9582328374285966,836.0805860805862,797.3992673992674,815.5311355311355,807.0695970695971,648.3150183150183,707.1428571428571,-0.755005,-0.000671,1.018250,-3.715973,6.482391,0.194397,1,1,1,1,1,83.000000
2024-12-18 12:53:47.086,,,,,,,,,,,,,,,,,,,,,,,,,,,,,,,,,,,,,,,/muse/elements/blink
2024-12-18 12:53:47.206,0.6394040492684433,0.08950597014767767,1.160152062200798,0.7385298916727767,0.731177905508588,0.4444274398475512,1.218603434529359,0.6747749545563876,0.8453965081817927,0.2954986341129979,0.6733646086370113,1.257408052779277,1.019024813931781,0.7408305057123449,0.7163185625175208,1.309874798677826,0.8177806134190225,0.5008871071686305,0.5171993756986141,0.9607359189513608,767.985347985348,770.4029304029305,789.7435897435897,794.1758241758242,412.6007326007326,0,-0.468750,-0.028503,0.755859,7.402039,-5.203857,2.908478,1,1,1,1,1,83.000000
2024-12-18 12:53:47.229,,,,,,,,,,,,,,,,,,,,,,,,,,,,,,,,,,,,,,,/muse/elements/jaw_clench
2024-12-18 12:53:47.330,,,,,,,,,,,,,,,,,,,,,,,,,,,,,,,,,,,,,,,/muse/elements/blink
2024-12-18 12:53:47.706,1.127895288658043,0.2092931890161608,1.160152062200798,1.061711402250651,1.110092005305301,0.4635447230194243,1.218603434529359,1.054158086441711,1.879409724278306,0.2887031137463368,0.6733646086370113,1.892179220629501,1.604798157750883,0.8284618884986008,0.7163185625175208,1.527284395044832,1.092247965236403,0.5970408667487692,0.5171993756986141,0.9751678393641152,697.0695970695971,774.4322344322345,796.1904761904763,697.4725274725275,15.31135531135531,0,-0.495178,-0.042297,0.744995,-0.441132,-3.102875,-1.457977,1,1,1,1,1,83.000000
2024-12-18 12:53:47.925,,,,,,,,,,,,,,,,,,,,,,,,,,,,,,,,,,,,,,,/muse/elements/blink
2024-12-18 12:53:48.218,1.127895288658043,0.3490236243834912,1.160152062200798,1.266018619775802,1.110092005305301,0.6195605146349844,1.218603434529359,1.270412811833466,1.879409724278306,0.2634845466691589,0.6733646086370113,1.891489382502604,1.604798157750883,0.7475305094462303,0.7163185625175208,1.647289550818098,1.092247965236403,0.5119422582891321,0.5171993756986141,0.9232049080173628,797.3992673992674,799.0109890109891,794.1758241758242,794.1758241758242,587.8754578754579,158.7545787545788,-0.470947,-0.019775,0.737427,6.579590,6.654358,2.497253,1,1,1,1,1,83.000000
2024-12-18 12:53:48.706,1.127895288658043,0.3490236243834912,1.160152062200798,1.42796488688923,1.110092005305301,0.6195605146349844,1.218603434529359,1.43126772632534,1.879409724278306,0.2634845466691589,0.6733646086370113,1.89051254925136,1.604798157750883,0.7475305094462303,0.7163185625175208,1.723474444553681,1.092247965236403,0.5119422582891321,0.5171993756986141,0.9710374769864485,815.1282051282052,818.7545787545788,797.3992673992674,809.8901098901099,854.2124542124542,654.3589743589744,-0.469727,0.009583,0.772644,2.175751,-18.437805,-1.570129,1,1,1,1,1,83.000000
2024-12-18 12:53:49.206,1.127895288658043,0.5173821191358414,1.160152062200798,1.42796488688923,1.110092005305301,0.2536395052178221,1.218603434529359,1.43126772632534,1.879409724278306,0.4574964995387221,0.6733646086370113,1.89051254925136,1.604798157750883,0.8010981834281186,0.7163185625175208,1.723474444553681,1.092247965236403,0.482374728540937,0.5171993756986141,0.9710374769864485,810.2930402930403,804.6520146520147,819.1575091575091,819.1575091575091,1622.197802197802,1622.197802197802,-0.472351,-0.103394,0.811768,2.557068,3.760834,-1.854248,1,1,1,1,1,83.000000
2024-12-18 12:53:49.706,0.5713306441660784,0.4303690253873198,0.9963287559397516,1.089678083680073,0.1765667138041586,0.2666398354901248,0.947131508286745,0.6752172998124528,0.8522589329874665,0.6825499450140144,0.7803964544338928,1.112498438258176,0.990976481464347,0.6577876399589535,0.9279292527415104,1.146269360140823,0.724785444673388,0.4669724218592816,0.6951594479145644,0.9371427101740698,813.919413919414,796.5934065934066,794.981684981685,801.025641025641,433.1501831501832,2.417582417582418,-0.567017,-0.040649,0.871155,2.684174,4.501038,-2.714081,1,1,1,1,1,83.000000
2024-12-18 12:53:50.220,0.4443623803428544,0.5026355527110219,1.131282482152527,0.969037155124402,0.1809103795692943,0.3298133927747939,1.037046318938557,0.7427802584055324,0.8622806203021925,0.6893918102493878,0.8191372018710487,1.112498438258176,0.8877784490209938,0.6218596730101512,0.8848251010430299,1.040641921791262,0.637638949931374,0.4569171595636802,0.6197037936470458,0.8433925448643935,782.4908424908425,802.6373626373627,804.2490842490843,788.9377289377289,889.6703296703297,911.0256410256411,-0.638611,-0.046448,0.906433,-5.114136,3.753357,-0.261688,1,1,1,1,1,83.000000
2024-12-18 12:53:50.705,0.5912135813909644,0.4715990291539788,1.095853870980833,0.8778385399122751,0.3215230704412911,0.4030195768955428,1.03986534275914,0.7634584384475704,0.7545500626958389,0.6877190323199339,0.8002995913211948,1.119179875437765,0.7965393160560745,0.5111759512062788,0.8936242097863182,0.9563500037625801,0.6391035647695333,0.5021174325576286,0.57126064591004,0.7530204073638284,812.7106227106227,809.0842490842491,815.934065934066,839.3040293040293,472.6373626373626,318.7179487179487,-0.508057,-0.086365,0.763977,1.024323,7.536621,1.211243,1,1,1,1,1,83.000000
2024-12-18 12:53:50.967,,,,,,,,,,,,,,,,,,,,,,,,,,,,,,,,,,,,,,,/muse/elements/blink
2024-12-18 12:53:51.215,0.5825976207651433,0.4683768231082119,1.118361416677809,0.7083688238386344,0.4095879712223635,0.3827146851382371,1.014929672299133,0.8140057449423391,0.5252157667068174,0.5748114770239318,0.6644983117084008,0.9609401873236413,0.7231430367384042,0.5661276348522157,0.8930494199950786,0.8586276146830391,0.6602897402839013,0.6388885323645632,0.5081947511133463,0.7026967557503379,785.3113553113553,798.2051282051282,777.6556776556777,797.8021978021978,0,0,-0.470886,-0.020081,0.765381,0.620575,-4.119720,-2.751465,1,1,1,1,1,83.000000
2024-12-18 12:53:51.706,0.763110803689014,0.6432898532154581,1.007524766589137,0.7063729209460452,0.5348337282113875,0.5405985609681389,0.9286174636941387,0.8067316729199456,0.2828486136375031,0.6019107069870397,0.6471190047080245,0.7335242142541426,0.7537659642889281,0.6151937643234642,0.9298834072457416,0.8817309533227504,0.7703476835427007,0.6502461066301668,0.5086346792044967,0.7320031694072973,796.1904761904763,788.5347985347986,792.967032967033,763.956043956044,550.4029304029305,107.5824175824176,-0.427673,-0.059631,0.791260,-1.749573,-2.257996,1.555176,1,1,1,1,1,83.000000
2024-12-18 12:53:52.206,0.6842989496892946,0.6143641139636625,1.035701943092199,0.6277189265564521,0.4578132298638342,0.4179284779558762,0.6783169523988627,0.6805270909685825,0.1184845903594511,0.6029325893824909,0.5202382249870693,0.7076705795074435,0.7734755409417023,0.6310345515835694,0.9388639739500857,0.9430101958650623,0.8374035006596756,0.5623966382210502,0.5492898239003474,0.7924585146990039,801.8315018315019,807.4725274725275,791.3553113553114,792.1611721611722,1183.003663003663,1305.897435897436,-0.524292,-0.023804,0.805908,3.357086,-5.555267,-3.162689,1,1,1,1,1,83.000000
2024-12-18 12:53:52.712,0.5232324944547094,0.8555742556199344,1.035701943092199,1.017397473960264,0.3606505178138997,0.515547449185925,0.6783169523988627,0.9947788804520008,0.4154122010390821,0.628716963360172,0.5202382249870693,0.8659537352214705,0.6647179936448067,0.6081696788729506,0.9388639739500857,0.8227943220045761,0.453743585241508,0.4065514463534615,0.5492898239003474,0.7180951673826675,817.948717948718,823.992673992674,832.0512820512821,823.992673992674,1622.197802197802,1621.794871794872,-0.444092,-0.067810,0.876038,4.859924,-7.005768,2.377625,1,1,1,1,1,83.000000
2024-12-18 12:53:53.205,0.508065442330249,0.7494194361438694,1.042143824626389,0.9855786316413342,0.2888459472138393,0.3553308281540578,1.022117290821362,1.134577257434826,0.9637409191052452,0.6103695515855742,0.8191544739530819,1.279397977979738,0.729941242293964,0.601306909971188,0.7618075181613473,1.188275296137714,0.526516687197972,0.3748562787076636,0.4927863335228485,0.6454219986492239,816.7399267399268,790.952380952381,791.7582417582418,799.8168498168499,1025.860805860806,1149.56043956044,-0.659363,-0.012939,0.972473,2.669220,-1.884155,-4.598236,1,1,1,1,1,83.000000
2024-12-18 12:53:53.706,0.5290583697862883,0.7733390566904119,1.114178708250883,0.9746578347166366,0.249831374410326,0.4216074903783202,0.9674340948602299,1.131920182452338,0.9644061833500025,0.5813942405749148,0.8394531535149544,1.279397977979738,0.7377058745697785,0.6457115644926403,0.6914735598321509,1.214301789003187,0.579506362616951,0.4233762947882394,0.409555244448177,0.6749812918776287,810.2930402930403,807.4725274725275,825.6043956043957,807.8754578754579,869.92673992674,954.5421245421246,-0.641907,-0.037476,0.926025,-6.602020,2.138367,7.491760,1,1,1,1,1,83.000000
2024-12-18 12:53:54.216,0.5041494734168324,0.4682323086826924,1.067220486807144,0.8999423026485258,0.170746530805297,0.3395412903191282,0.8798577855610001,1.138375902772808,0.9613204490642941,0.5704415276456213,0.6747976395068513,1.29111455360521,0.8010826258297057,0.6794524612363501,0.6700667320140887,1.292660295396575,0.6589912253844815,0.3637236347884264,0.3278779896795386,0.6475246055210042,784.1025641025641,801.8315018315019,808.6813186813187,789.7435897435897,636.2271062271062,533.4798534798535,-0.593933,-0.040527,0.866699,-0.755157,-1.241150,-3.828125,1,1,1,1,1,83.000000
2024-12-18 12:53:54.707,0.4595667692986973,0.3478143589670666,1.109850964834789,0.9528821396358973,0.08587871157363584,0.3066822747153866,0.8642155901613126,1.069556604948775,0.9818155714017538,0.3722326481082709,0.6399486955822729,1.523435447191957,0.8069687574645016,0.677181967759717,0.6225933504754787,1.227676721127243,0.7031056174525923,0.3587734090112998,0.2269418655357503,0.6967563710117584,802.2344322344322,790.1465201465202,795.7875457875458,788.9377289377289,182.1245421245421,0,-0.508057,-0.024658,0.731079,4.530945,-3.035583,-5.809479,1,1,1,1,1,83.000000
2024-12-18 12:53:55.206,0.4595667692986973,0.2796067120067252,0.9591048766608774,0.8723334923713583,0.08587871157363584,0.2797854653811775,0.7886301157930781,0.9426330563004538,0.9818155714017538,0.3129278379495405,0.5948113726174654,1.483593413587523,0.8069687574645016,0.6401001519190079,0.6609352453565914,1.115956067921545,0.7031056174525923,0.3614910663894553,0.1618904827015125,0.6640266602156186,817.5457875457876,797.8021978021978,791.3553113553114,813.919413919414,532.2710622710623,50.36630036630036,-0.451355,-0.016357,0.767273,2.923431,-8.329163,3.297272,1,1,1,1,1,83.000000
2024-12-18 12:53:55.718,0.4595667692986973,0.3507466088872518,1.052664227724144,0.7631590108226378,0.08587871157363584,0.3121413164334433,0.7968615486266408,0.802657900089587,0.9818155714017538,0.3300204089884823,0.4679536618774062,1.483593413587523,0.8069687574645016,0.5782374260341329,0.7172613100306942,0.9215612593164155,0.7031056174525923,0.4423782561310197,0.2607438689442314,0.6534181793196467,831.6483516483516,796.996336996337,789.7435897435897,809.0842490842491,674.9084249084249,230.0732600732601,-0.531677,-0.035217,0.808777,4.493561,-8.381500,-7.416992,1,1,1,1,1,83.000000
2024-12-18 12:53:56.206,0.4595667692986973,0.3241329600114369,0.9605866973181209,0.5870911641442469,0.08587871157363584,0.3493511952756398,0.7641334714892736,0.7043711225218301,0.9818155714017538,0.2990858604892239,0.4726251897946109,0.9374905207947328,0.8069687574645016,0.5379103852185424,0.7046369214844381,0.6574041445966492,0.7031056174525923,0.5226777066951075,0.363940476351537,0.6428385660541035,816.7399267399268,811.5018315018315,830.4395604395604,813.5164835164835,1622.197802197802,1622.197802197802,-0.502441,-0.077271,0.841492,-2.228088,-0.568237,2.250519,1,1,1,1,1,83.000000
2024-12-18 12:53:56.705,0.4595667692986973,0.3795224036538294,0.929027791950039,0.6353679075014884,0.08587871157363584,0.4525204044429557,0.9041403659313528,0.8254419273688869,0.9818155714017538,0.2693586582524778,0.3865238557695076,0.9811211391960839,0.8069687574645016,0.5649221748949258,0.6714181122548032,0.7681808596351181,0.7031056174525923,0.4732252950180252,0.522129641881436,0.5770875582465382,832.0512820512821,796.996336996337,785.3113553113553,847.7655677655678,855.8241758241759,787.7289377289378,-0.572388,-0.010071,0.913818,-2.489777,-0.471039,-7.633820,1,1,1,1,1,83.000000
2024-12-18 12:53:57.148,,,,,,,,,,,,,,,,,,,,,,,,,,,,,,,,,,,,,,,/muse/elements/blink
2024-12-18 12:53:57.207,0.4595667692986973,0.3928284403947524,0.8374614976940719,0.7119788265873759,0.08587871157363584,0.5851276984089876,0.9255714087165723,0.9275159294749038,0.9818155714017538,0.2291061167894123,0.4672277830089697,0.9722645796800197,0.8069687574645016,0.4068376716861948,0.6997124542526972,0.8285219873046283,0.7031056174525923,0.202467286586622,0.5990505524793298,0.5390832504321955,808.2783882783883,796.996336996337,807.8754578754579,819.5604395604396,639.8534798534798,619.3040293040293,-0.691528,-0.053650,0.923584,-0.179443,10.123596,0.523376,1,1,1,1,1,83.000000
2024-12-18 12:53:57.706,0.4595667692986973,0.3866505085006023,0.7274351161393783,0.7666619988797377,0.08587871157363584,0.6050221053355173,1.051552994469231,1.027369667366092,0.9818155714017538,0.4628044420808208,0.5009001319649485,0.949636957963966,0.8069687574645016,0.5386929067154416,0.9901296555517111,0.9001554479763131,0.7031056174525923,0.3508314890209819,0.7774163262128192,0.4650208677768972,802.6373626373627,802.6373626373627,824.7985347985348,815.1282051282052,801.4285714285714,898.5347985347986,-0.680115,-0.012390,0.886902,1.256104,4.456177,-3.304749,1,1,1,1,1,83.000000
2024-12-18 12:53:58.205,0.4595667692986973,0.3851754848617095,0.6923362180061737,0.8442972262553881,0.08587871157363584,0.5447722595195761,1.04142713011316,1.091384187658876,0.9818155714017538,0.5309692205365948,0.4238687735098958,0.8342453400812088,0.8069687574645016,0.5693124025951894,1.157896628950686,0.8592445164085621,0.7031056174525923,0.3314076534676865,0.8563021560538767,0.4775856404901477,793.7728937728938,804.6520146520147,807.0695970695971,807.4725274725275,0,0,-0.586182,-0.017578,0.744568,-2.362671,-1.345825,1.525269,1,1,1,1,1,83.000000
2024-12-18 12:53:58.710,0.05461052522020779,0.2867471089838363,0.6834433899495839,0.4003044175190071,0.3902717890320908,0.4516512125022935,0.9925195325226805,0.7373678559912678,0.3248000168748928,0.5420068829062622,0.4793328083227922,0.579438162352765,0.7003609840680034,0.6052604104610723,0.9752863896325209,0.7064593782769251,0.4002268590867367,0.3179176118448084,0.6686947829095986,0.5124913072945272,794.981684981685,801.8315018315019,793.7728937728938,798.6080586080586,68.4981684981685,0.8058608058608059,-0.525513,-0.067688,0.737427,3.798218,-0.844879,5.644989,1,1,1,1,1,83.000000
2024-12-18 12:53:59.205,0.1036494764315119,0.2462111145948644,1.043400108647774,0.7020867983300473,0.6162029289677151,0.5062721382091921,1.04662829557032,1.018076683506502,0.60890677247808,0.5649642472575755,0.6025332427564439,0.7587564964840485,0.731905817576049,0.5328144638682802,0.5725276788198128,0.7218780094996028,0.4604037269596284,0.2786475536615787,0.3058344670079201,0.6071180315150821,787.7289377289378,795.3846153846154,799.8168498168499,787.7289377289378,652.7472527472528,297.7655677655678,-0.525208,0.018311,0.771484,-3.730927,-12.037659,-0.291595,1,1,1,1,1,83.000000
2024-12-18 12:53:59.715,0.05439073778025484,0.151266637493412,1.032057780489978,0.7174243003220019,0.4740463627193349,0.4956045472422773,1.031187874187676,0.9324630806782634,0.7765676093489926,0.7145834968303046,0.7327720359500074,0.9196997179720534,0.7308045248032845,0.491781720648673,0.6168355760695835,0.8045086262564658,0.4987096611139052,0.3344341248470751,0.3380511079637302,0.6039026423909597,823.992673992674,803.4432234432235,808.2783882783883,833.6630036630037,1537.985347985348,1622.197802197802,-0.560974,-0.044434,0.705566,-6.295471,-3.835602,7.499237,1,1,1,1,1,83.000000
2024-12-18 12:53:59.775,,,,,,,,,,,,,,,,,,,,,,,,,,,,,,,,,,,,,,,/muse/elements/blink
2024-12-18 12:54:00.206,0.6124744404077158,0.4953487063643445,1.1048971155727,1.123897529495537,0.7017027103944273,0.648397453255813,1.057610577663213,1.097880695271231,1.022931882364007,0.7692403411558237,0.7969213238313267,1.134564595580689,0.9186962016165905,0.6468436248149647,0.6372500283310077,1.069751891024128,0.6876335262793265,0.6396561176551071,0.3733444314224322,0.7814852741125604,785.7142857142858,782.0879120879121,813.5164835164835,798.2051282051282,1621.794871794872,1621.794871794872,-0.619751,0.006897,0.898010,10.803986,4.074860,-6.706696,1,1,1,1,1,83.000000
2024-12-18 12:54:00.705,0.7211711833022411,0.5788604359172103,1.051713560327007,1.187760444279737,0.6097903504711035,0.5114235967442897,0.9875886968028894,1.028617424231511,1.033108850337594,0.7692880588592624,0.7727401218243447,1.117802615414376,0.9468920302075919,0.7475321462549912,0.6821805939706708,1.157759338593773,0.6776973356405984,0.6085834314301537,0.3743842101874864,0.8068571885880474,786.9230769230769,786.5201465201466,794.5787545787546,791.7582417582418,637.032967032967,524.6153846153846,-0.621643,-0.091858,0.946106,1.899109,7.603912,2.983246,1,1,1,1,1,83.000000
2024-12-18 12:54:01.206,0.8142157618468397,0.6186701785727217,1.130621632762038,1.427595465379293,0.6658003317663139,0.4768837342508431,1.064454452052433,1.239718406681738,1.033108850337594,0.7242540962211678,0.8261783652115635,1.11633614377301,1.0082882202914,0.780365779939847,0.6898500191137336,1.326080046563363,0.7898130175106763,0.5689346146795918,0.6211236073114328,0.970451284396864,810.6959706959707,800.6227106227107,802.6373626373627,794.5787545787546,1024.652014652015,1234.981684981685,-0.677917,-0.051575,0.948730,-1.884155,5.495453,2.908478,1,1,1,1,1,83.000000
2024-12-18 12:54:01.710,0.6961103372626078,0.5158524759693497,1.139955663352726,1.49693928279222,0.4122100628029389,0.3424766926452818,1.015058092327324,1.296705034194124,0.8009283465737913,0.5702845513200004,0.8594824159619818,1.113832763947285,0.9210591341838688,0.7425207536503664,0.7108393813187119,1.344749178032489,0.7726859204864026,0.2406881549726892,0.5921302426641974,0.9829852723463526,778.8644688644689,798.2051282051282,801.4285714285714,782.4908424908425,271.1721611721612,0,-0.652527,-0.031921,0.801514,-0.493469,9.263763,-2.549591,1,1,1,1,1,83.000000
2024-12-18 12:54:02.205,0.8394194255920714,0.3606400794678117,1.103114048845655,0.9107591105143845,0.7631634423258806,0.4600449068710475,1.008242298881928,1.055037212953571,1.032548245717991,0.8176822991756869,0.9410453366423098,0.6188013483551078,0.9871763997163047,0.690289248660105,0.7010768503804673,1.02194239762332,0.804108677521963,0.2630665280894061,0.5566014294277581,0.8539236362978597,806.6666666666667,783.2967032967033,813.1135531135532,802.2344322344322,272.3809523809524,0.8058608058608059,-0.567749,-0.043335,0.707153,-2.945862,2.579498,2.183228,1,1,1,1,1,83.000000
2024-12-18 12:54:02.705,0.9599570147105592,0.3787133547022459,1.132617482353512,0.9107591105143845,0.9120886203969053,0.4899672687658849,0.9057651397131611,1.055037212953571,1.024172278151248,0.8224529506500279,1.128771368136481,0.6188013483551078,1.029679866137325,0.6563349815295603,0.7197077800551452,1.02194239762332,0.7975344758989665,0.4252022868316437,0.5553296800217512,0.8539236362978597,840.9157509157509,805.4578754578755,780.8791208791209,882.014652014652,109.5970695970696,3.626373626373626,-0.516174,-0.007751,0.747192,-3.244934,-7.200165,0.904694,1,1,1,1,1,83.000000
2024-12-18 12:54:02.733,,,,,,,,,,,,,,,,,,,,,,,,,,,,,,,,,,,,,,,/muse/elements/blink
2024-12-18 12:54:03.211,1.06430514318099,0.4196124656364036,1.110524713207725,0.9231956469426639,1.09741046011525,0.469479754446442,0.8932971761631879,1.081460513161359,1.024172278151248,0.8173493814655669,1.126767550778884,0.6187476657731865,1.074267483774384,0.6603875044395825,0.7011312332692065,1.060244188966685,0.6250441221648371,0.5464254707579227,0.5473028972473013,0.889663443513514,793.7728937728938,788.9377289377289,794.5787545787546,780.4761904761905,692.6373626373627,471.8315018315018,-0.497742,-0.045410,0.749756,1.570129,-8.740387,7.372131,1,1,1,1,1,83.000000
2024-12-18 12:54:03.705,1.06430514318099,0.5398006842995198,1.209734657668035,0.9231956469426639,1.09741046011525,0.2948221859096042,0.7418309232213216,1.081460513161359,1.024172278151248,0.7423897076520555,1.126767550778884,0.6187476657731865,1.074267483774384,0.61919088513807,0.7283320276350485,1.060244188966685,0.6250441221648371,0.6448213346984014,0.647074435064834,0.889663443513514,799.0109890109891,802.2344322344322,778.4615384615385,779.6703296703297,1183.809523809524,1456.190476190476,-0.566467,0.007385,0.781677,0.859833,-5.891724,-7.708588,1,1,1,1,1,83.000000
2024-12-18 12:54:03.758,,,,,,,,,,,,,,,,,,,,,,,,,,,,,,,,,,,,,,,/muse/elements/jaw_clench
2024-12-18 12:54:04.205,1.06430514318099,0.677078578341887,1.233642074946808,0.9231956469426639,1.09741046011525,0.2979059377491098,0.7268289933777129,1.081460513161359,1.024172278151248,0.2175281294160546,1.118335319904881,0.6187476657731865,1.074267483774384,0.75344178272678,0.7015123510920361,1.060244188966685,0.6250441221648371,0.7140885898629378,0.6526075697704585,0.889663443513514,815.934065934066,801.8315018315019,828.4249084249085,826.4102564102565,1622.197802197802,1622.197802197802,-0.553955,-0.109253,0.759644,-3.013153,4.201965,0.269165,1,1,1,1,1,83.000000
2024-12-18 12:54:04.705,0.4696295276442315,0.677078578341887,1.233642074946808,0.6584503891975787,0.323427680546903,0.2979059377491098,0.7268289933777129,0.9141934154911812,1.071572228006971,0.2175281294160546,1.118335319904881,1.042846909054797,1.63699215731719,0.75344178272678,0.7015123510920361,1.744833533983928,1.465966730764957,0.7140885898629378,0.6526075697704585,1.665320078778031,820.7692307692308,815.1282051282052,858.6446886446887,816.3369963369963,1525.897435897436,1622.197802197802,-0.476685,0.024780,0.744751,1.884155,-2.123413,-1.375732,1,1,1,1,1,83.000000
2024-12-18 12:54:05.205,0.4938582788914032,0.5704332833790576,1.233642074946808,0.7630440323069847,0.6507165300287738,0.794085905165419,0.7268289933777129,1.180349264391453,1.076601041974981,0.2562903586067352,1.118335319904881,1.10352890050745,1.48817427887188,0.7958644255084319,0.7015123510920361,1.590303939929198,1.343412941560976,0.8112384378957733,0.6526075697704585,1.514081119840653,790.1465201465202,798.6080586080586,791.7582417582418,801.4285714285714,618.0952380952381,618.4981684981685,-0.696045,-0.062561,1.068481,3.267365,0.328979,3.095398,1,1,1,1,1,83.000000
2024-12-18 12:54:05.705,0.5947388761452225,0.7087960045083145,1.233642074946808,0.7783632412067665,0.7484508066940143,0.8254151621902011,0.7268289933777129,1.130732855759769,1.074237006451404,0.7668931104869052,1.118335319904881,1.121225058178448,1.31706132417379,0.8025977416414124,0.7015123510920361,1.483043342279531,1.187997842988658,0.8322022838448002,0.6526075697704585,1.365410566565125,813.919413919414,796.996336996337,804.2490842490843,823.1868131868132,834.0659340659341,1122.161172161172,-0.733704,-0.160767,1.033813,-0.643005,6.250610,-13.226471,1,1,1,1,1,83.000000
2024-12-18 12:54:06.205,0.9374611951767615,0.9298598404740938,1.233642074946808,0.9826862670510188,0.853140499394729,0.887430124311879,0.7268289933777129,1.164206816823018,1.178376803850482,0.8571929270935154,1.118335319904881,1.219614933798263,1.188258386141011,0.7847658258169097,0.7015123510920361,1.312932557963799,1.006250567347565,0.7772548928712126,0.6526075697704585,1.155381058437533,788.5347985347986,798.2051282051282,786.1172161172161,803.040293040293,499.6336996336996,265.1282051282051,-0.572998,-0.024841,0.759094,-3.020630,0.605621,2.743988,1,1,1,1,1,83.000000
2024-12-18 12:54:06.726,1.006471931386086,0.9241166728430537,0.942661123552892,1.073638352683262,0.7847444559064141,0.8549172511196593,1.212600957243614,1.047324834585464,1.178376803850482,0.8571929270935154,0.6638789250932476,1.21396476768008,1.191826890027446,0.814931354514855,0.7069490283543561,1.280975101511938,1.003388610438771,0.7722366983799975,0.7924477686981416,1.118573858198794,809.0842490842491,796.5934065934066,787.7289377289378,790.1465201465202,79.37728937728939,0,-0.500122,-0.058167,0.709595,-3.207550,-3.656158,5.158997,1,1,1,1,1,83.000000
2024-12-18 12:54:07.204,0.9832056251796036,0.8336322862061073,0.9391907749035255,1.075648496111535,0.7192302988595394,0.6786861661431728,1.154243691910539,0.946538343473896,1.168176032827519,0.8356306893544038,0.6844768394295351,1.203961571663,1.079343107746445,0.8174384199209371,0.850787511783451,1.21668850847868,1.017003831563857,0.6779634138711452,0.7575064382408558,1.084133313795631,780.8791208791209,801.8315018315019,808.2783882783883,762.7472527472528,426.7032967032967,0,-0.502991,-0.062500,0.706787,2.011261,2.729034,-10.564728,1,1,1,1,1,83.000000
2024-12-18 12:54:07.714,0.8729064544376159,0.4166159396155012,0.8166803282115377,1.080318585637374,0.6923925817188014,0.5070997884710537,1.050661490375884,0.9021539297224079,0.992070091966426,0.4407138201164182,0.6844768394295351,0.9734619500221269,0.9805327487460961,0.7968799212356638,0.9499016281897478,1.079169265041915,0.8941956603776916,0.6547065580964426,0.7031110617516969,0.8965660559287089,839.7069597069598,819.1575091575091,816.7399267399268,816.7399267399268,599.9633699633699,206.3003663003663,-0.472656,-0.053040,0.746094,0.560760,-0.807495,8.710480,1,1,1,1,1,83.000000
2024-12-18 12:54:08.204,0.9755478647636888,0.4306498848847895,0.7568573436549754,1.068620877151672,0.7775390766260764,0.4360182556172391,0.9449741979933234,0.8954574959346526,1.107661708669311,0.4423255099228231,0.4481661685726327,0.9935876188603336,0.9450200181151207,0.7782493623658642,1.059225024578464,1.058086862415448,0.8500018384563809,0.6538506147496461,0.6314381495501105,0.8469508478941327,807.0695970695971,788.5347985347986,801.8315018315019,799.8168498168499,1272.051282051282,1530.32967032967,-0.501160,0.009766,0.739380,4.687958,-14.564819,-2.257996,1,1,1,1,1,83.000000
2024-12-18 12:54:08.705,0.9879913031859692,0.5064662202527076,0.7586306154285538,1.10395161622595,0.8165750343205755,0.5168157671448974,0.8891480438666106,1.054417694935682,1.354720871857854,0.4593961697276408,0.567031297286788,0.9875031195272503,1.012763170384119,0.7277418567931487,1.083757024457311,1.073352110301901,0.8119870867764317,0.6431983181364156,0.5951556117901569,0.7790344640974121,804.2490842490843,801.8315018315019,809.0842490842491,809.8901098901099,1622.197802197802,1622.197802197802,-0.472717,-0.065125,0.812012,8.127289,-3.633728,1.248627,1,1,1,1,1,83.000000
2024-12-18 12:54:09.209,0.8924166781789014,0.6056983255300078,0.8800355070507416,0.9937145191838996,0.8458898210312316,0.626135916903552,0.977696448672515,1.126111528607401,1.354720871857854,0.4428349236872121,0.5590298846231945,1.058057232326016,0.9899009887475938,0.6754435365999534,1.089317878247549,1.086313257685179,0.7650898861654554,0.6329624928003089,0.6013682929469922,0.8882490598401528,817.1428571428571,820.7692307692308,834.8717948717949,813.1135531135532,1254.725274725275,1344.578754578755,-0.464111,0.031921,0.688782,1.241150,-0.620575,-0.119629,1,1,1,1,1,83.000000
2024-12-18 12:54:09.714,0.3352832599968069,0.6479257099062747,0.9372089352692762,0.8337860676213672,0.713112520707826,0.6690407181405135,1.00849407945921,1.07319041172707,1.33493281417205,0.4253655600923477,0.5590298846231945,0.9471072464651716,1.058891840883686,0.6800509988833472,1.091010066923928,1.132737346260375,0.7357644805423743,0.680477706601346,0.5911728453464979,0.8594812660864295,800.2197802197802,784.1025641025641,818.3516483516484,807.0695970695971,633.8095238095239,678.9377289377289,-0.733887,-0.026001,1.053467,-2.123413,11.775970,3.035583,1,1,1,1,1,83.000000
2024-12-18 12:54:10.205,0.4348559751743317,0.5494392271919445,0.9372089352692762,0.8935623291267957,0.7130368207436261,0.6676053465227314,1.00849407945921,1.031620247072073,0.9832332098892161,0.6165720281574345,0.5590298846231945,0.9470183452777274,1.1182412418579,0.667563196164453,1.091010066923928,1.103959998031855,0.7698023085062912,0.6722440145519654,0.5911728453464979,0.8402030691402356,792.1611721611722,786.9230769230769,821.5750915750916,794.981684981685,963.4065934065934,1046.813186813187,-0.656311,0.009521,0.862610,4.912262,3.902893,-4.762726,1,1,1,1,1,83.000000
2024-12-18 12:54:10.705,0.5790946813903385,0.5341581280270316,0.9372089352692762,0.987266326591658,0.6225049482926495,0.6306451402208316,1.00849407945921,1.028875055816019,0.8594284530425709,0.6274154852269387,0.5590298846231945,0.9956028215008995,1.124772139035407,0.6706961200385444,1.091010066923928,1.065081048451398,0.8068661149525475,0.6429014589003671,0.5911728453464979,0.7310935356776522,801.4285714285714,818.3516483516484,780.4761904761905,819.96336996337,10.87912087912088,0,-0.520569,0.000671,0.701477,0.672913,-3.304749,-1.996307,1,1,1,1,1,83.000000
2024-12-18 12:54:11.205,0.6032558460645133,0.4133875509621782,0.9372089352692762,0.8656354151870549,0.5208167216548776,0.5093387371382671,1.00849407945921,0.8845548496977318,0.7792806577948045,0.6242756613159669,0.5590298846231945,0.9663742592196702,1.00960531977425,0.5936375234810409,1.091010066923928,0.8997967064623204,0.7498146956059893,0.4608892069933853,0.5911728453464979,0.5964597954407153,817.5457875457876,804.6520146520147,784.9084249084249,813.1135531135532,274.7985347985348,23.77289377289377,-0.523621,-0.015747,0.682495,0.814972,-0.785065,1.173859,1,1,1,1,1,83.000000
2024-12-18 12:54:11.705,0.5640493713577588,0.3727366285172635,0.9372089352692762,0.8416165749160569,0.3850738318464049,0.4121230286233448,1.00849407945921,0.8028436502964215,0.6771401546591936,0.5375113939523026,0.5590298846231945,1.073575679334009,0.8335054401194398,0.5405251013875525,1.091010066923928,0.9351557997872915,0.6527665135163013,0.2880293564572751,0.5911728453464979,0.5497307837992174,792.1611721611722,807.0695970695971,799.4139194139194,801.8315018315019,672.893772893773,226.0439560439561,-0.494019,0.001953,0.719666,0.186920,-8.261871,-7.297363,1,1,1,1,1,83.000000
2024-12-18 12:54:12.212,0.5170059780271928,0.2552232296957619,0.9372089352692762,0.7615237238212691,0.4564837771094523,0.3420526233978627,1.00849407945921,0.7208826458772206,0.6513509238587827,0.4027768217551963,0.5590298846231945,0.9588750192573314,0.7522837988732131,0.5459771042241511,1.091010066923928,0.9772520465361542,0.6278992103197671,0.2243839537250052,0.5911728453464979,0.6685244071814511,790.1465201465202,800.6227106227107,791.7582417582418,807.8754578754579,906.1904761904763,553.6263736263736,-0.497620,-0.013000,0.710388,0.777588,-15.065765,6.803894,1,1,1,1,1,83.000000
2024-12-18 12:54:12.705,0.5354432123296592,0.5487244517606099,0.8245852011025866,0.9913021248717426,0.4783580198210161,0.2959949567055498,1.120800970271528,0.9459544732125466,0.6153795904252565,0.6788651574810947,0.5829316733342315,1.080847548225091,0.7908340857507108,0.6139971362910259,0.8903792524524504,1.077875674120367,0.6640027799260012,0.3862866662941653,0.6475959644289745,0.8063284325838592,829.2307692307693,797.8021978021978,796.5934065934066,839.7069597069598,1577.472527472527,1622.197802197802,-0.528564,0.125183,0.735229,4.628143,-12.643280,4.082336,1,1,1,1,1,83.000000
2024-12-18 12:54:12.765,,,,,,,,,,,,,,,,,,,,,,,,,,,,,,,,,,,,,,,/muse/elements/blink
2024-12-18 12:54:13.191,,,,,,,,,,,,,,,,,,,,,,,,,,,,,,,,,,,,,,,/muse/elements/blink
2024-12-18 12:54:13.204,0.5821017381577944,0.7978293615732915,0.8152708771880326,1.05425864781392,0.553011170750906,0.4414259940039083,1.051577993917935,1.01529901757579,0.6119951933037165,0.7918346000258067,0.6017055439230807,0.9988036767037578,0.761653355967073,0.6756216292853114,0.895534842581462,1.074624016186371,0.6195706134113125,0.4362616177111086,0.618616094080742,0.8915085440350375,839.7069597069598,820.3663003663004,876.3736263736264,855.4212454212454,1621.391941391941,1622.197802197802,-0.574158,-0.080505,0.838501,5.158997,-19.058380,-3.297272,1,1,1,1,1,83.000000
2024-12-18 12:54:13.705,0.5952273902701545,0.9382972014166961,0.7709980076979525,1.220194779001636,0.5105384526753628,0.4761434450262036,1.065031353570625,1.161867110542407,0.5956722925660759,0.7904016777672402,0.5820039965024725,0.9834783242525496,0.7120517779791742,0.7275080771435747,0.9449461775568658,1.114903206955116,0.6071026724293375,0.4866589600869338,0.6423362831219614,0.9495084701494718,823.1868131868132,815.1282051282052,820.3663003663004,853.8095238095239,908.2051282051282,1185.018315018315,-0.606873,0.023132,0.918884,-4.695435,9.174042,2.833710,1,1,1,1,1,83.000000
2024-12-18 12:54:14.205,0.5952273902701545,1.078870705750521,0.7628134628655964,1.220194779001636,0.5105384526753628,0.6803643289515684,0.9348516577091351,1.161867110542407,0.5956722925660759,0.7887156635640047,0.5034236290920208,0.9834783242525496,0.7120517779791742,0.7474115394797045,0.9573206485065181,1.114903206955116,0.6071026724293375,0.33942100392276,0.5736382774993545,0.9495084701494718,805.0549450549451,801.8315018315019,791.7582417582418,813.5164835164835,571.7582417582418,502.8571428571429,-0.730530,-0.023926,0.954712,-3.618774,3.529053,-4.336548,1,1,1,1,1,83.000000
2024-12-18 12:54:14.706,0.5952273902701545,0.2323152987462022,0.7628134628655964,1.220194779001636,0.5105384526753628,0.4534910301311563,0.9348516577091351,1.161867110542407,0.5956722925660759,0.3467133601456693,0.5034236290920208,0.9834783242525496,0.7120517779791742,1.025567846296284,0.9573206485065181,1.114903206955116,0.6071026724293375,0.7764269505946607,0.5736382774993545,0.9495084701494718,814.7252747252747,810.2930402930403,805.8608058608058,830.4395604395604,562.4908424908425,417.0329670329671,-0.642639,-0.053833,0.880127,0.912170,6.587067,-4.844971,1,1,1,1,1,83.000000
2024-12-18 12:54:15.098,,,,,,,,,,,,,,,,,,,,,,,,,,,,,,,,,,,,,,,/muse/elements/blink
2024-12-18 12:54:15.205,0.6494604021092805,0.2607397135465171,0.7628134628655964,1.220194779001636,0.05587546384216129,0.4297222883744634,0.9348516577091351,1.161867110542407,0.8188378623651127,0.3588579090828132,0.5034236290920208,0.9834783242525496,1.286998167512599,0.9815590032264523,0.9573206485065181,1.114903206955116,0.9919522340652133,0.6603294369731311,0.5736382774993545,0.9495084701494718,813.919413919414,811.5018315018315,818.3516483516484,813.5164835164835,0,0,-0.543030,-0.027039,0.710876,-1.271057,-8.374023,4.650574,1,1,1,1,1,83.000000
2024-12-18 12:54:15.705,1.154430541517215,0.4620584186278381,0.7628134628655964,1.376811023110503,0.9438813993154491,0.4811211963623485,0.9348516577091351,1.297282943348919,1.022853976770401,0.6574763913658149,0.5034236290920208,1.519479557997763,1.241912459264641,0.9537429189284868,0.9573206485065181,1.52848495366092,0.9700031972423232,0.6621078640982043,0.5736382774993545,1.066265026860867,811.0989010989011,800.2197802197802,785.7142857142858,815.5311355311355,472.6373626373626,0,-0.476318,-0.006714,0.748535,-2.848663,1.667328,5.121613,1,1,1,1,1,83.000000
2024-12-18 12:54:16.216,1.30573375754133,0.4791932319466584,0.7628134628655964,1.329265447374567,1.123752547001446,0.5648489284965,0.9348516577091351,1.215534263317056,0.986333206027828,0.7820838496757275,0.5034236290920208,1.225987842906322,1.15939291019972,0.8725163830234719,0.9573206485065181,1.362393251187231,0.8649824857968498,0.6715208046310081,0.5736382774993545,1.010818657491987,793.7728937728938,799.4139194139194,807.4725274725275,812.7106227106227,776.4468864468864,418.2417582417582,-0.459473,0.003662,0.705566,-1.368256,-10.235748,-6.863708,1,1,1,1,1,83.000000
2024-12-18 12:54:16.707,1.134034330263864,0.5369487151550297,0.7628134628655964,1.184552136461672,0.9970293769845562,0.5482529244510457,0.9348516577091351,1.047814565332726,0.9467282668505678,0.820334144966047,0.5034236290920208,1.225987842906322,0.9652814036660126,0.7677961479396441,0.9573206485065181,1.258260468325995,0.7302717738318175,0.6669080143553708,0.5736382774993545,0.8388106684042927,814.3223443223443,809.4871794871796,790.952380952381,791.7582417582418,1136.263736263736,1288.168498168498,-0.411316,-0.020325,0.759338,-0.052338,-16.262054,10.041351,1,1,1,1,1,83.000000
2024-12-18 12:54:17.205,0.5125939004887328,0.3747586037417435,0.7628134628655964,0.8834584618546624,0.1217103166199317,0.4623181234165728,0.9348516577091351,0.6769465508745788,0.6453454024968657,0.820334144966047,0.5034236290920208,1.017449314828837,0.8409237689760802,0.6502703052065557,0.9573206485065181,1.098307335222819,0.6371898072351105,0.5962079428892613,0.5736382774993545,0.7338560419268202,826.8131868131868,822.7838827838829,811.9047619047619,830.8424908424909,1616.556776556777,1622.197802197802,-0.456665,0.087708,0.777649,9.974060,4.456177,0.934601,1,1,1,1,1,83.000000
2024-12-18 12:54:17.705,0.5125939004887328,0.3322560738205146,0.9167928174211457,1.006041744799634,0.1217103166199317,0.2481862759506667,1.040172959820748,0.8220720383719737,0.6453454024968657,0.5807920388794212,0.733311209838542,1.117663041701296,0.8409237689760802,0.5711229978514579,0.7135476324950571,1.113883106242855,0.6371898072351105,0.5211024265677089,0.616625953500722,0.7068500402683865,813.5164835164835,827.6190476190476,832.4542124542124,828.4249084249085,1166.080586080586,1192.271062271062,-0.445740,0.017029,0.869812,5.278625,7.237549,-3.656158,1,1,1,1,1,83.000000
2024-12-18 12:54:18.223,0.7072599587174681,0.2892798706663375,0.8907788253066405,1.067778905791827,0.5359153539017928,0.2926476711259263,1.008880863957652,1.072134598320126,0.7771903908185953,0.5565280660804887,0.7521784102796947,1.022700731418718,0.7574742329160354,0.5509239594443911,0.5899132314658369,1.095388602282027,0.6602619680635745,0.4811490358350636,0.5351618386777038,0.8329259758412403,819.5604395604396,806.6666666666667,806.2637362637363,765.5677655677656,589.0842490842491,354.1758241758242,-0.571777,0.093689,0.999634,1.196289,-2.250519,-2.788849,1,1,1,1,1,83.000000
2024-12-18 12:54:18.705,1.269431942853048,0.4627191570495895,0.8841203229086874,1.0697879617996,1.083082823192571,0.4024085404767981,1.014161870328603,1.170121593290894,0.9758304643458575,0.6255209306519466,0.7521784102796947,1.007535908967012,0.9922951697154485,0.6089881348419209,0.5006419631241561,1.085954886701366,0.7971349069071256,0.4903768598903523,0.5110577677595362,0.8646042165939083,812.7106227106227,795.3846153846154,799.4139194139194,812.7106227106227,781.6849816849817,732.5274725274726,-0.718201,0.015869,1.020081,-2.310333,8.134766,-1.697235,1,1,1,1,1,83.000000
2024-12-18 12:54:19.210,1.225744502132887,0.6369170924556613,0.8667391823693821,1.243045406735656,1.040191080665702,0.5423778823769208,0.8888433389054424,1.1864673899429,1.006853166120994,0.6283742334487878,0.7958115216022494,1.034537274450664,0.9657774234837537,0.6521214390843089,0.8676970798366661,1.140260993103297,0.8099595896834841,0.3677437951237865,0.5573120487595494,0.9583939721457788,792.5641025641025,794.5787545787546,800.2197802197802,792.967032967033,471.4285714285714,305.8241758241758,-0.609314,0.014771,0.979187,4.015045,6.160889,-1.278534,1,1,1,1,1,83.000000
2024-12-18 12:54:19.708,1.065277394188792,0.6793946387825464,1.059583059671021,1.197489995308567,0.8448117248754025,0.5690544304981712,0.9389935198377873,1.129660785868328,1.013563344601488,0.6341653732442063,0.9618275604772698,1.099754107552807,0.9658283685381372,0.7027350664667998,1.110743872326867,1.088870068329646,0.7986620835041914,0.3979709508922998,0.6585989377347873,1.017923008556711,814.7252747252747,817.948717948718,830.4395604395604,812.7106227106227,1.611721611721612,0,-0.483459,-0.017212,0.745239,-2.609406,0.777588,4.164581,1,1,1,1,1,83.000000
2024-12-18 12:54:20.209,0.9102953388529932,0.7080145601049216,1.09886486234396,1.068136477239559,0.7172385400888037,0.6688616489811875,0.925863538000365,1.119112810922208,1.063186863488031,0.7320078415665642,0.9618275604772698,1.13887227017015,1.008329791699335,0.6954202777417603,1.058579806075666,1.118004296789462,0.8471848617127113,0.4503750285554634,0.6757845240284091,0.9707418707297929,819.5604395604396,812.7106227106227,797.8021978021978,818.3516483516484,394.4688644688645,0,-0.508484,-0.010315,0.734680,6.602020,1.031799,7.985229,1,1,1,1,1,83.000000
2024-12-18 12:54:20.705,0.571090336748811,0.6825850096122924,1.186843798731038,0.7696593320777528,0.5078793005407609,0.5812062883707015,0.961736384850627,0.9249190317865701,0.9963257070155859,0.6912100035226992,0.9618275604772698,1.186995731176844,0.9293914273304545,0.7307972365229348,1.043405247896357,1.031038269130523,0.7556203809197057,0.4997072385343408,0.6924329123919831,0.8626457593529265,776.8498168498169,770,819.96336996337,806.2637362637363,713.1868131868132,308.2417582417582,-0.488464,-0.020203,0.715393,-5.375824,-3.379517,-8.695526,1,1,1,1,1,83.000000
2024-12-18 12:54:21.214,0.5986393227252519,0.7475122219920419,0.9742535028867524,0.6432332791527062,0.5883839581269629,0.5447075861895292,0.9579635573424654,0.7771918079291856,1.045435999163607,0.9464038604598368,0.6611997426939787,1.179671989471637,0.851536924673202,0.6883255121596326,0.8631791099474463,0.9685735043158651,0.6986729481814719,0.4943063463722114,0.6087231652203033,0.7640281893681725,804.6520146520147,804.6520146520147,780.0732600732601,797.8021978021978,1184.615384615385,1073.809523809524,-0.430481,-0.093933,0.769348,11.536713,-16.127472,-2.676697,1,1,1,1,1,83.000000
2024-12-18 12:54:21.705,0.4677501373218704,0.6915751125038478,0.7291422479872876,0.6931068078711653,0.4996274360541908,0.2900272543585766,0.9774613872700494,0.5710227318387584,0.9575597866903002,0.9262682216818363,0.5079823522967194,1.182352032034071,0.6988624874637356,0.6763971008501363,0.9291984908299511,0.8259864370310297,0.5282245020670754,0.4669875267591522,0.4319645972072518,0.7253934147215265,810.6959706959707,799.8168498168499,816.7399267399268,815.1282051282052,1336.520146520146,1621.794871794872,-0.500305,-0.039001,0.750916,3.162689,12.658234,-2.983246,1,1,1,1,1,83.000000
2024-12-18 12:54:22.205,0.440357076823691,0.5915948843180933,0.7733194418096089,0.7082766698766279,0.5252001434440028,0.3026243706019122,0.9393021761622187,0.521281840467305,0.9698428135296276,0.923584108160134,0.4185011516089863,1.10939547346035,0.809050179591697,0.5446680698266895,1.001264890284455,0.8525911885867112,0.6661196404154083,0.4657759526075803,0.4994134712134361,0.801322396148719,785.7142857142858,793.7728937728938,815.5311355311355,805.0549450549451,1033.113553113553,1265.604395604396,-0.508179,-0.066101,0.960083,-0.493469,6.871185,9.996490,1,1,1,1,1,83.000000
2024-12-18 12:54:22.705,0.3666288850944258,0.4292867842265017,0.8357191948245674,0.6684248049981992,0.4511524193090773,0.2412994754602061,0.9254272160369182,0.5894504150871781,0.9393769866403185,0.8350878547764137,0.5011168316546063,0.9498338408435947,0.8860543716777464,0.5566535229533404,0.9405350395694926,0.95288116527569,0.6775302832066531,0.5407728403215148,0.5705060931628381,0.8075070731143674,797.3992673992674,794.1758241758242,789.3406593406594,786.1172161172161,935.2014652014652,933.5897435897436,-0.615967,-0.106812,0.862732,2.243042,2.048645,-3.200073,1,1,1,1,1,83.000000
2024-12-18 12:54:23.204,0.4844156757554937,0.4713513781266963,0.8974328402209437,0.8822237707854795,0.2489128211547587,0.3141228214604352,0.9042796347055286,0.7828832148093348,0.784973872325023,0.03556395496051888,0.4700719353687853,0.8845212851824188,0.9117227925815952,0.5598699700322823,0.9273809580396344,0.992036454441894,0.6853783801204701,0.5999185911901476,0.6525509888011698,0.7928514555913972,769.1941391941392,770.8058608058608,836.0805860805862,784.9084249084249,117.2527472527473,0,-0.627930,-0.027832,0.874084,-4.957123,1.465454,3.588867,1,1,1,1,1,83.000000
2024-12-18 12:54:23.647,,,,,,,,,,,,,,,,,,,,,,,,,,,,,,,,,,,,,,,/muse/elements/blink
2024-12-18 12:54:23.705,0.6799197242491808,0.578990257391004,0.8844508067619881,0.965476597419758,0.402558844024241,0.3313136401530737,0.9325274802224924,0.9058687484183695,0.6620898832035266,-0.005333683892128131,0.3575137348298552,0.9047644909969129,0.8420237853141855,0.6409348623367355,0.7524481741720164,0.9219325220943836,0.5300993636621858,0.6688649974867605,0.6703409504921809,0.6853908264814033,819.96336996337,797.3992673992674,799.0109890109891,814.3223443223443,90.25641025641026,0,-0.505371,-0.026001,0.703308,1.532745,-1.091614,5.330963,1,1,1,1,1,83.000000
2024-12-18 12:54:24.205,0.8253505356105959,0.7872918401344148,0.8844508067619881,1.107964179386975,0.5073743529329815,0.4962296032260998,0.9325274802224924,1.011298352817688,0.6591509981928226,-0.01192946884626122,0.3575137348298552,0.8707583512026051,0.7847463392245323,0.6514083468999515,0.7524481741720164,0.8167409590127039,0.4674280539066476,0.6751036834746815,0.6703409504921809,0.6039970825825229,782.893772893773,805.4578754578755,761.1355311355312,796.1904761904763,517.3626373626374,51.97802197802198,-0.464355,-0.000549,0.688110,-0.358887,-4.097290,-1.271057,1,1,1,1,1,83.000000
2024-12-18 12:54:24.710,0.9140276454933058,0.7872918401344148,0.8844508067619881,1.096250259659759,0.6135861685384961,0.4962296032260998,0.9325274802224924,1.025929205445668,0.6591509981928226,-0.01192946884626122,0.3575137348298552,0.8081331316582636,0.7047465593215276,0.6514083468999515,0.7524481741720164,0.7095745498850478,0.3546292117370159,0.6751036834746815,0.6703409504921809,0.5537362902633064,820.7692307692308,801.8315018315019,768.7912087912088,789.7435897435897,991.6117216117217,989.5970695970697,-0.489319,-0.019043,0.739563,4.284210,-4.732819,5.622559,1,1,1,1,1,83.000000
2024-12-18 12:54:25.207,0.6173811934478955,0.6320482862828926,0.8844508067619881,1.096250259659759,0.3556194374010106,0.3661274238089068,0.9325274802224924,1.025929205445668,0.8638027665928798,0.7326402125566515,0.3575137348298552,0.8081331316582636,0.7615829321866826,0.8309534505851424,0.7524481741720164,0.7095745498850478,0.9865452548717721,0.4161664080346996,0.6703409504921809,0.5537362902633064,825.2014652014652,808.2783882783883,790.952380952381,817.5457875457876,1150.3663003663,1102.014652014652,-0.550354,0.063110,0.743347,12.007751,-0.186920,-5.024414,1,1,1,1,1,83.000000
2024-12-18 12:54:25.705,0.5754329071301142,0.6672974566805289,0.8844508067619881,1.085551445496741,0.3266613374023186,0.3730434498996967,0.9325274802224924,0.7808183556793181,0.918026572108229,0.7602261517688385,0.3575137348298552,1.173610314036296,0.6929385348788827,0.7361581201977636,0.7524481741720164,1.206401010637428,0.858514013191219,0.4376032632785255,0.6703409504921809,0.676872251257744,807.8754578754579,799.8168498168499,813.5164835164835,819.1575091575091,1622.197802197802,1621.794871794872,-0.629028,-0.043884,0.937927,-6.729126,6.639404,8.374023,1,1,1,1,1,83.000000
2024-12-18 12:54:26.206,0.6299328806163601,0.8646296660677927,0.8844508067619881,1.056337201246234,0.3906493577817437,0.4242739561608138,0.9325274802224924,0.7450851174793753,1.004311718253229,0.8389645280328542,0.3575137348298552,1.173610314036296,0.7167525096065659,0.7101998953313459,0.7524481741720164,1.167625845554834,0.7810512741758767,0.4568294902363941,0.6703409504921809,0.6712525913058814,809.8901098901099,817.1428571428571,815.5311355311355,800.2197802197802,701.9047619047619,528.2417582417582,-0.575928,0.019653,0.839111,7.753448,4.493561,-15.850830,1,1,1,1,1,83.000000
2024-12-18 12:54:26.709,0.8161601800527684,0.8767069634746212,1.313752512515707,1.124984544577323,0.5211941080086702,0.4880271970243889,1.113860707853388,0.9260346835606864,0.9779735673413477,0.7633994401627572,0.6455899572324811,1.179640690180149,0.6587382593029817,0.6078109289888114,0.7030546511778432,1.116155814055556,0.550198370872842,0.4544195864613821,0.4869150758369458,0.6123489331573414,769.5970695970697,808.2783882783883,786.5201465201466,750.6593406593407,311.8681318681319,18.93772893772894,-0.558716,0.012146,0.864075,4.538422,2.474823,-5.779572,1,1,1,1,1,83.000000
2024-12-18 12:54:27.204,0.9102432321123256,0.885502561061999,1.313752512515707,1.202411355591147,0.601298375697316,0.6233081749350665,1.113860707853388,1.052545798271475,0.7864640955592053,0.7131308055035673,0.6455899572324811,0.7302217766722657,0.6806163042472486,0.7384747522157812,0.7030546511778432,0.8902707514379145,0.4701883261418608,0.4320139291151556,0.4869150758369458,0.5884383658735612,813.1135531135532,806.6666666666667,805.8608058608058,797.8021978021978,423.4798534798535,126.1172161172161,-0.470581,-0.010254,0.829102,10.998383,0.710297,-15.858307,1,1,1,1,1,83.000000
2024-12-18 12:54:27.710,1.001652241047458,0.7148356572971456,1.313752512515707,1.202411355591147,0.6347939737188805,0.6045077360800384,1.113860707853388,1.052545798271475,0.818297500519292,0.6818649750521286,0.6455899572324811,0.7302217766722657,0.641939092602522,0.7302355315742582,0.7030546511778432,0.8902707514379145,0.3447208638750819,0.3828628957187649,0.4869150758369458,0.5884383658735612,788.5347985347986,788.9377289377289,804.2490842490843,796.996336996337,1020.622710622711,960.5860805860806,-0.474487,0.079834,0.840515,6.101074,-6.325378,-14.676971,1,1,1,1,1,83.000000
2024-12-18 12:54:28.204,0.9082348606760414,0.6440981913621385,1.260242787475966,1.202411355591147,0.5286222102600081,0.5937706240922029,0.6510453687356241,1.052545798271475,0.8416680693502002,0.5952658399601239,0.6622191086030778,0.7302217766722657,0.8294097040326776,0.7420252645733119,0.6784527618035867,0.8902707514379145,0.620098792558783,0.4422634303111725,0.3690969885980457,0.5884383658735612,799.4139194139194,832.0512820512821,788.1318681318681,781.2820512820513,1113.296703296703,1350.622710622711,-0.479675,-0.012329,0.831604,13.368530,2.975769,-28.284760,1,1,1,1,1,83.000000
