TimeStamp,Delta_TP9,Delta_AF7,Delta_AF8,Delta_TP10,Theta_TP9,Theta_AF7,Theta_AF8,Theta_TP10,Alpha_TP9,Alpha_AF7,Alpha_AF8,Alpha_TP10,Beta_TP9,Beta_AF7,Beta_AF8,Beta_TP10,Gamma_TP9,Gamma_AF7,Gamma_AF8,Gamma_TP10,RAW_TP9,RAW_AF7,RAW_AF8,RAW_TP10,AUX_RIGHT,AUX_LEFT,Accelerometer_X,Accelerometer_Y,Accelerometer_Z,Gyro_X,Gyro_Y,Gyro_Z,HeadBandOn,HSI_TP9,HSI_AF7,HSI_AF8,HSI_TP10,Battery,Elements
2024-12-18 12:39:28.617,,,,,,,,,,,,,,,,,,,,,,,,,,,,,,,,,,,,,,,/muse/event/connected MuseS-9CF6
2024-12-18 12:39:28.715,,,,,,,,,,,,,,,,,,,,,,,,,,,,,,,,,,,,,,,/muse/elements/blink
2024-12-18 12:39:28.766,,,,,,,,,,,,,,,,,,,,,,,,,,,,,,,,,,,,,,,/muse/elements/blink
2024-12-18 12:39:29.118,0.2746265249848768,0.4206770153287925,0.6698318448216588,0.1747938368306449,0.1386204597873362,0.3510232658105795,0.3667613905186569,0.1001307184646717,0.2788496897831302,0.1615879528507626,0.116027421797629,0.437574721076806,0.4474697424623079,0.07409844852877215,0.2453831430573876,0.9043958124982472,0.358176658717047,0.08726240032907338,0.1344429036795821,0.5028128703343545,811.0989010989011,793.3699633699634,802.6373626373627,819.96336996337,762.7472527472528,906.5934065934066,-0.510803,0.003723,0.849182,0.949554,-1.996307,-1.652374,1,1,1,1,1,85.000000
2024-12-18 12:39:29.620,0.2746265249848768,0.454781484489135,0.746394619404167,0.1747938368306449,0.1386204597873362,0.4186708147093975,0.4229592869149223,0.1001307184646717,0.2788496897831302,0.1591727962473461,0.1022753064030973,0.437574721076806,0.4474697424623079,0.1493170370685112,0.2829320636882504,0.9043958124982472,0.358176658717047,0.149045697812233,0.140620579432235,0.5028128703343545,747.8388278388279,802.2344322344322,809.8901098901099,765.9706959706959,819.1575091575091,617.6923076923077,-0.501587,0.006958,0.845215,0.545807,1.330872,-1.779480,1,1,1,1,1,85.000000
2024-12-18 12:39:29.761,,,,,,,,,,,,,,,,,,,,,,,,,,,,,,,,,,,,,,,/muse/elements/blink
2024-12-18 12:39:30.128,0.2746265249848768,0.3797331331878792,0.7491365043220291,0.1747938368306449,0.1386204597873362,0.3301081844304291,0.3734920283397433,0.1001307184646717,0.2788496897831302,0.1013206308632641,0.2015973559153227,0.437574721076806,0.4474697424623079,0.2589066182591928,0.281454328537348,0.9043958124982472,0.358176658717047,0.2213045544290364,0.07795552489429811,0.5028128703343545,735.3479853479854,805.0549450549451,809.8901098901099,743.4065934065934,848.5714285714286,657.1794871794872,-0.515259,0.006775,0.844055,-0.291595,-0.463562,1.158905,1,1,1,1,1,85.000000
2024-12-18 12:39:30.355,,,,,,,,,,,,,,,,,,,,,,,,,,,,,,,,,,,,,,,/muse/elements/blink
2024-12-18 12:39:30.618,0.2746265249848768,0.3027741915888972,0.6162980431763728,0.1747938368306449,0.1386204597873362,0.1521103612145391,0.3373016618811424,0.1001307184646717,0.2788496897831302,0.04665394232016631,0.2100096932969801,0.437574721076806,0.4474697424623079,0.2050718629376312,0.3112164005372782,0.9043958124982472,0.358176658717047,0.2120736571057273,-0.01410176714850029,0.5028128703343545,814.3223443223443,803.4432234432235,801.4285714285714,790.1465201465202,763.956043956044,587.0695970695971,-0.498779,0.000183,0.869568,-0.007477,-1.472931,-0.194397,1,1,1,1,1,85.000000
2024-12-18 12:39:31.126,0.2746265249848768,0.4106676173876596,0.6173631831712046,0.1747938368306449,0.1386204597873362,0.2036606034997654,0.4267046598586754,0.1001307184646717,0.2788496897831302,0.1105687699086227,0.2429610364440515,0.437574721076806,0.4474697424623079,0.213540253061927,0.3138116864135909,0.9043958124982472,0.358176658717047,0.1666484017273537,0.1385770894161434,0.5028128703343545,786.5201465201466,801.025641025641,815.934065934066,792.1611721611722,848.1684981684982,670.8791208791209,-0.512207,0.014282,0.852966,0.508423,-2.467346,-0.246735,1,2,1,1,2,85.000000
2024-12-18 12:39:31.622,0.2746265249848768,0.5756453766771807,0.5962931834630693,0.1747938368306449,0.1386204597873362,0.3522429011153525,0.3762417750101273,0.1001307184646717,0.2788496897831302,0.1904765169667497,0.2396604352844347,0.437574721076806,0.4474697424623079,0.2379740041771953,0.3305444488236596,0.9043958124982472,0.358176658717047,0.1205200640614125,0.2295419426892486,0.5028128703343545,753.0769230769231,816.7399267399268,815.5311355311355,754.6886446886447,855.4212454212454,750.6593406593407,-0.508606,0.010376,0.854797,-3.043060,-4.785156,2.048645,1,2,1,1,2,85.000000
2024-12-18 12:39:31.818,,,,,,,,,,,,,,,,,,,,,,,,,,,,,,,,,,,,,,,/muse/elements/blink
2024-12-18 12:39:32.118,1.061427501174382,0.5897683251055655,0.6154562502020214,0.8580426409464795,0.9455940505574363,0.3425184337972949,0.3203853851010658,0.7062900098802762,0.5896208959656275,0.1655241970556675,0.4030252569157847,0.7158107270872975,0.6134364422176954,0.2803515942212205,0.2930614713373944,0.7667340016278157,0.4241282067728468,0.05780277473042661,0.19090273071547,0.7488399938823703,804.2490842490843,807.4725274725275,803.4432234432235,769.1941391941392,929.5604395604396,834.0659340659341,-0.544312,-0.027161,0.841125,1.128998,-4.239349,-0.747681,1,1,1,1,1,85.000000
2024-12-18 12:39:32.612,,,,,,,,,,,,,,,,,,,,,,,,,,,,,,,,,,,,,,,/muse/elements/blink
2024-12-18 12:39:32.624,1.061427501174382,0.5221907316225476,0.6271484953054861,0.8580426409464795,0.9455940505574363,0.2293576889736557,0.1649199764552765,0.7062900098802762,0.5896208959656275,0.1275459293085818,0.4011144690780331,0.7158107270872975,0.6134364422176954,0.3174089345615084,0.258112949124778,0.7667340016278157,0.4241282067728468,-0.02410252341228951,0.05011841226896429,0.7488399938823703,810.6959706959707,797.3992673992674,802.2344322344322,810.6959706959707,820.3663003663004,553.2234432234433,-0.615784,0.042114,0.996155,9.615173,2.803802,-1.106567,1,1,1,1,1,85.000000
2024-12-18 12:39:33.121,1.12203288013486,0.4703714271494915,0.6874635477591263,0.8828078245359425,1.058685186596348,0.04067800649036905,0.4154920337334614,0.749805315155477,0.5230215617367725,0.2060325668365516,0.4327067334166111,0.7131293464810803,0.5642676785016135,0.3070217588771299,0.3095765486616584,0.7636423184813458,0.4048232306904614,0.2625138990213097,0.1024638430470739,0.7756386472594509,813.919413919414,803.4432234432235,797.3992673992674,787.3260073260074,610.8424908424909,269.5604395604396,-0.501709,0.018677,0.791016,0.770111,-5.323486,-1.413116,1,1,1,1,1,85.000000
2024-12-18 12:39:33.618,1.12203288013486,0.4301406455916669,0.5694969333047104,0.8828078245359425,1.058685186596348,0.08048070191874272,0.4138002726960059,0.749805315155477,0.5230215617367725,0.1983147479695887,0.413813915367001,0.7131293464810803,0.5642676785016135,0.3968650182529868,0.3681346175070688,0.7636423184813458,0.4048232306904614,0.4197126504537391,0.3247174356722546,0.7756386472594509,827.2161172161173,799.4139194139194,797.8021978021978,844.1391941391942,663.6263736263736,373.919413919414,-0.442993,-0.082153,0.726074,-2.115936,-2.714081,0.254211,1,1,1,1,1,85.000000
2024-12-18 12:39:33.672,,,,,,,,,,,,,,,,,,,,,,,,,,,,,,,,,,,,,,,/muse/elements/blink
2024-12-18 12:39:34.118,1.12203288013486,0.4657975007041407,0.8384572138831091,0.8828078245359425,1.058685186596348,0.4452379139600883,0.6059941544011683,0.749805315155477,0.5230215617367725,0.4473815658366833,0.353584099912433,0.7131293464810803,0.5642676785016135,0.3884603750697191,0.4483390157781943,0.7636423184813458,0.4048232306904614,0.464423391669226,0.3947974368471326,0.7756386472594509,830.0366300366301,810.6959706959707,807.0695970695971,834.4688644688645,920.2930402930403,913.040293040293,-0.419006,0.056946,0.822998,5.405731,-26.400604,-8.590851,1,1,1,1,1,85.000000
2024-12-18 12:39:34.626,1.12203288013486,0.6475147412615871,0.8256294073351995,0.8828078245359425,1.058685186596348,0.6953992094109751,0.501627803720276,0.749805315155477,0.5230215617367725,0.4347499643145852,0.2483632010815424,0.7131293464810803,0.5642676785016135,0.3508315175431987,0.3915922828738734,0.7636423184813458,0.4048232306904614,0.2984831015812901,0.3172570456684957,0.7756386472594509,821.5750915750916,805.8608058608058,802.2344322344322,800.2197802197802,1102.014652014652,1453.369963369963,-0.372253,-0.087708,0.755554,3.521576,-4.807587,8.351593,1,1,1,1,1,85.000000
2024-12-18 12:39:35.118,1.12203288013486,1.011051439383533,0.9715306558283739,0.8828078245359425,1.058685186596348,0.8900316223960466,0.5688480219266636,0.749805315155477,0.5230215617367725,0.4433285221881249,0.594182813055117,0.7131293464810803,0.5642676785016135,0.2207865425999171,0.3188298209171739,0.7636423184813458,0.4048232306904614,0.1113153876037795,0.2264489926505363,0.7756386472594509,809.0842490842491,799.0109890109891,809.4871794871796,788.9377289377289,1062.124542124542,1151.172161172161,-0.503906,0.050476,0.896545,3.820648,7.902985,-6.759033,1,2,1,1,2,85.000000
2024-12-18 12:39:35.622,1.12203288013486,1.117301690123798,0.796635116299239,0.8828078245359425,1.058685186596348,0.8656168356009514,0.3192250658762174,0.749805315155477,0.5230215617367725,0.5065852426542343,0.5770590937120811,0.7131293464810803,0.5642676785016135,0.1355514058744159,0.1901862313740558,0.7636423184813458,0.4048232306904614,-0.02219813993412455,0.1294858319278397,0.7756386472594509,798.2051282051282,809.4871794871796,817.5457875457876,801.8315018315019,1005.714285714286,1609.304029304029,-0.395508,-0.023193,0.861084,-3.514099,9.600220,3.611298,1,2,1,1,2,85.000000
2024-12-18 12:39:36.123,1.12203288013486,1.157786265043242,0.7820189908697119,0.8828078245359425,1.058685186596348,0.9115504514130656,0.4070444572446984,0.749805315155477,0.5230215617367725,0.6791723707561201,0.6845957544743098,0.7131293464810803,0.5642676785016135,0.1485778498635778,0.1857952850749892,0.7636423184813458,0.4048232306904614,-0.02045978161895301,0.1966335050962017,0.7756386472594509,770.8058608058608,803.4432234432235,789.7435897435897,783.2967032967033,569.7435897435897,65.67765567765568,-0.749939,0.041504,1.230835,-0.082245,8.172150,-3.813171,1,2,1,1,2,85.000000
2024-12-18 12:39:36.461,,,,,,,,,,,,,,,,,,,,,,,,,,,,,,,,,,,,,,,/muse/elements/blink
2024-12-18 12:39:36.617,1.12203288013486,0.9647010619737793,0.9464815689556907,0.8828078245359425,1.058685186596348,0.9293556699462626,0.684590740163171,0.749805315155477,0.5230215617367725,0.7495069038972251,0.8485578146957328,0.7131293464810803,0.5642676785016135,0.3133412071800186,0.2549934992665069,0.7636423184813458,0.4048232306904614,0.09706777625467865,0.06859457896128483,0.7756386472594509,801.4285714285714,809.8901098901099,808.2783882783883,796.5934065934066,651.1355311355312,355.7875457875458,-0.731934,-0.013428,1.017029,-6.213226,2.572021,4.919739,1,2,1,1,2,85.000000
2024-12-18 12:39:37.126,1.12203288013486,0.7817336822771618,1.197499473468421,0.8828078245359425,1.058685186596348,0.9134131553746372,0.9378791312392182,0.749805315155477,0.5230215617367725,0.7388506721840387,0.9771923556356334,0.7131293464810803,0.5642676785016135,0.3834766663453119,0.331299494292084,0.7636423184813458,0.4048232306904614,0.1220691064181538,0.02672556010683355,0.7756386472594509,798.6080586080586,793.3699633699634,801.8315018315019,807.8754578754579,665.2380952380953,631.7948717948718,-0.485107,-0.045776,0.750854,-0.179443,3.252411,4.560852,1,2,1,1,2,85.000000
2024-12-18 12:39:37.618,1.12203288013486,0.4321692116354287,1.203428320359216,0.8828078245359425,1.058685186596348,0.7427831230467252,0.9488667142432236,0.749805315155477,0.5230215617367725,0.7388506721840387,0.9863666652122158,0.7131293464810803,0.5642676785016135,0.4116647411885833,0.3750148098922138,0.7636423184813458,0.4048232306904614,0.130943113533518,-0.1429288721282103,0.7756386472594509,761.5384615384615,802.6373626373627,799.8168498168499,798.2051282051282,530.2564102564103,131.3553113553114,-0.424072,-0.065063,0.725281,-6.811371,-2.856140,-7.267456,1,2,1,1,2,85.000000
2024-12-18 12:39:38.124,0.6462508757608743,-0.01717913102680827,1.129048782400476,0.932969899269064,0.2114815791106956,0.293949557024668,0.7974394154761441,0.7771113687864581,0.4584319360126667,0.4569715276822701,0.9802014508080302,0.9818685403652535,0.5692979015763574,0.2921107298066827,0.384826575664111,0.6344638445976751,0.1672466922117082,-0.02115768633144469,-0.148297359605788,0.6270276294286757,798.2051282051282,781.6849816849817,799.4139194139194,809.0842490842491,674.9084249084249,437.985347985348,-0.407715,-0.091553,0.779175,5.704803,-10.183411,9.301147,1,1,1,1,1,85.000000
2024-12-18 12:39:38.618,0.6462508757608743,0.304137143238789,1.130512412675164,0.932969899269064,0.2114815791106956,0.3474337145191131,0.7537209948080149,0.7771113687864581,0.4584319360126667,0.6357208939897959,0.7385943764823305,0.9818685403652535,0.5692979015763574,0.3622024824909169,0.4370419364861131,0.6344638445976751,0.1672466922117082,0.1628728275975472,-0.01159851579355576,0.6270276294286757,788.9377289377289,801.4285714285714,790.5494505494506,795.3846153846154,732.9304029304029,597.948717948718,-0.408813,-0.003845,0.803406,4.972076,-22.168732,-9.592743,1,1,1,1,1,85.000000
2024-12-18 12:39:39.118,0.6848593637958375,0.2654073049957624,1.198318953028379,0.8441554667837264,0.170464662528543,0.3784330900350889,0.6865846198436009,0.661202307301717,0.4356759278625206,0.6357208939897959,0.6526903256549285,0.7480153014488338,0.5964545300580616,0.4757412572054992,0.4649757991034089,0.641587503141723,0.2161011326425612,0.2648870361511874,0.1448125655732778,0.5638068607976139,808.6813186813187,809.0842490842491,809.4871794871796,830.0366300366301,1116.923076923077,1112.893772893773,-0.340332,-0.123352,0.724854,2.332764,2.773895,10.475006,1,1,1,1,1,85.000000
2024-12-18 12:39:39.624,0.6848593637958375,0.3958670705868748,1.224695759524285,0.8441554667837264,0.170464662528543,0.4367303823068458,0.7480445680652493,0.661202307301717,0.4356759278625206,0.6399122703323972,0.6460894450163328,0.7480153014488338,0.5964545300580616,0.4942521720072967,0.4778621927844595,0.641587503141723,0.2161011326425612,0.343544246470151,0.2798698823188759,0.5638068607976139,811.5018315018315,797.3992673992674,802.2344322344322,773.2234432234433,1157.619047619048,1413.882783882784,-0.474609,0.077087,0.742798,-3.334656,7.880554,-7.484283,1,1,1,1,1,85.000000
2024-12-18 12:39:39.732,,,,,,,,,,,,,,,,,,,,,,,,,,,,,,,,,,,,,,,/muse/elements/blink
2024-12-18 12:39:40.125,0.6848593637958375,0.3310558254678714,1.045828385465563,0.8441554667837264,0.170464662528543,0.2411563505689427,0.4434910581586724,0.661202307301717,0.4356759278625206,0.5008600496084576,0.8124009040374716,0.7480153014488338,0.5964545300580616,0.3919643003774022,0.594832972732377,0.641587503141723,0.2161011326425612,0.297617893425287,0.3444560709427824,0.5638068607976139,837.2893772893773,796.996336996337,791.3553113553114,824.3956043956044,1338.937728937729,1622.197802197802,-0.436035,-0.053345,0.932617,-2.474823,-10.654449,-5.525360,1,1,1,1,1,85.000000
2024-12-18 12:39:40.209,,,,,,,,,,,,,,,,,,,,,,,,,,,,,,,,,,,,,,,/muse/elements/blink
2024-12-18 12:39:40.618,0.6848593637958375,0.4256928777706582,1.046543717148697,0.8441554667837264,0.170464662528543,0.2319519288448599,0.5522245720343383,0.661202307301717,0.4356759278625206,0.4972647368630755,0.8179621508566304,0.7480153014488338,0.5964545300580616,0.2972124833270222,0.6703959587991899,0.641587503141723,0.2161011326425612,0.2531076482737977,0.3493235660576037,0.5638068607976139,812.3076923076924,800.6227106227107,819.1575091575091,805.8608058608058,953.3333333333334,959.3772893772895,-0.458801,0.058350,0.758362,4.620667,-7.431946,-7.895508,1,1,1,1,1,85.000000
2024-12-18 12:39:41.118,0.6848593637958375,0.3826098287749985,0.9374473210508593,0.8441554667837264,0.170464662528543,0.297611176014435,0.3588842530075553,0.661202307301717,0.4356759278625206,0.5074989265787713,0.8154016171172863,0.7480153014488338,0.5964545300580616,0.3257233911674409,0.7391431582627012,0.641587503141723,0.2161011326425612,0.3083830618810153,0.2625907982386014,0.5638068607976139,818.3516483516484,808.6813186813187,807.0695970695971,811.9047619047619,727.6923076923077,379.5604395604396,-0.791443,-0.008972,1.078491,-3.304749,-2.549591,7.551575,1,2,1,1,2,85.000000
2024-12-18 12:39:41.565,,,,,,,,,,,,,,,,,,,,,,,,,,,,,,,,,,,,,,,/muse/elements/blink
2024-12-18 12:39:41.623,0.6848593637958375,0.4371522338118422,0.8238277056920985,0.8441554667837264,0.170464662528543,0.4066999267412182,0.3495371397864724,0.661202307301717,0.4356759278625206,0.2723464420229503,0.5249352688453837,0.7480153014488338,0.5964545300580616,0.4126123124119218,0.5758376828566873,0.641587503141723,0.2161011326425612,0.4373837293353419,0.2652144046393274,0.5638068607976139,812.7106227106227,794.5787545787546,789.3406593406594,803.8461538461539,743.4065934065934,462.1611721611721,-0.839050,-0.026001,1.012512,-2.355194,15.663910,-0.882263,1,2,1,1,2,85.000000
2024-12-18 12:39:42.118,0.6848593637958375,0.3498991684307384,0.8497125933018602,0.8441554667837264,0.170464662528543,0.4150371820384801,0.6236423331975826,0.661202307301717,0.4356759278625206,0.1960767175915985,0.6755607311608867,0.7480153014488338,0.5964545300580616,0.430611226414467,0.5066418562232732,0.641587503141723,0.2161011326425612,0.5072560758348958,0.2266199698444409,0.5638068607976139,816.7399267399268,821.5750915750916,796.1904761904763,801.4285714285714,415.018315018315,22.56410256410257,-0.690247,0.016296,0.902588,1.166382,-2.272949,-8.224487,1,2,1,1,2,85.000000
2024-12-18 12:39:42.618,0.6848593637958375,0.4184772383384953,0.8911857229654591,0.8441554667837264,0.170464662528543,0.4313914831625169,0.7457366484975586,0.661202307301717,0.4356759278625206,0.1298497715119899,0.62300616957554,0.7480153014488338,0.5964545300580616,0.4525018743132753,0.4472410765996838,0.641587503141723,0.2161011326425612,0.5227433848799067,0.2342796211863404,0.5638068607976139,815.5311355311355,798.6080586080586,806.2637362637363,807.8754578754579,448.4615384615385,150.6959706959707,-0.483337,-0.034668,0.715393,4.478607,-3.745880,4.007568,1,2,1,1,2,85.000000
2024-12-18 12:39:43.118,0.6848593637958375,0.2019162543506202,0.9856582414191051,0.8441554667837264,0.170464662528543,0.3282501378725771,0.8760338202633581,0.661202307301717,0.4356759278625206,-0.002368271588062293,0.595901942022708,0.7480153014488338,0.5964545300580616,0.4673169677907422,0.475364866715647,0.641587503141723,0.2161011326425612,0.456660019802904,0.1406846332534634,0.5638068607976139,814.7252747252747,799.8168498168499,788.5347985347986,800.2197802197802,423.8827838827839,0,-0.426453,-0.033264,0.776306,-3.648682,-5.054321,-7.065582,1,2,1,1,2,85.000000
2024-12-18 12:39:43.617,0.6848593637958375,0.7448865092994768,1.242891886519139,0.8441554667837264,0.170464662528543,0.2582811240073932,0.5094995489939299,0.661202307301717,0.4356759278625206,0.0677893380420536,0.5526457584208676,0.7480153014488338,0.5964545300580616,0.3487013879817866,0.4958135765661819,0.641587503141723,0.2161011326425612,0.1423609195727718,0.07375724444059026,0.5638068607976139,797.8021978021978,795.7875457875458,810.6959706959707,809.4871794871796,627.3626373626374,371.9047619047619,-0.448242,-0.027344,0.741943,1.353302,2.115936,8.142242,1,2,1,1,2,85.000000
2024-12-18 12:39:44.118,0.6848593637958375,0.6150802084662828,1.290757634602876,0.8441554667837264,0.170464662528543,0.154030874644895,0.6524337229685662,0.661202307301717,0.4356759278625206,0.07813137879443594,0.4200161615431528,0.7480153014488338,0.5964545300580616,0.5737637070360235,0.4317558490690603,0.641587503141723,0.2161011326425612,0.1586504797591944,0.1683870154629173,0.5638068607976139,790.1465201465202,790.952380952381,795.7875457875458,809.0842490842491,718.021978021978,389.2307692307692,-0.407532,0.020630,0.757507,2.295380,-2.639313,-3.416901,1,2,1,1,2,85.000000
2024-12-18 12:39:44.618,0.58334928187922,0.5401385125299676,1.188223403965578,0.4803079692105869,0.3882795485340896,0.2041272328241041,0.6455330965957478,0.6107354965961845,0.9847199673531087,0.1488743242671483,0.4387327643052672,0.7026032212187637,0.9125968425470706,0.5361262167465582,0.4075316765021841,1.172046991637895,0.3284337799610194,0.1456469079289253,0.180442286859005,0.8964817731977901,785.7142857142858,795.3846153846154,789.7435897435897,797.8021978021978,1495.274725274725,1622.197802197802,-0.423889,-0.127930,0.819092,-1.555176,4.029999,-3.416901,1,2,1,1,2,85.000000
2024-12-18 12:39:45.118,0.3945711640081771,0.2798262230041433,1.006921693839758,0.2664068016898741,0.5290563276297102,0.2888745824257806,0.8206338980499405,0.7039945251852252,1.012415732532826,0.1521701831769054,0.4097135684824478,0.7144817346568089,0.7701619041383433,0.4454290636247976,0.3160115858761161,0.96895694823009,0.3178582353019508,0.1189108182298005,0.1513438045840349,0.7613503064933377,802.2344322344322,803.8461538461539,810.6959706959707,815.934065934066,1622.197802197802,1622.197802197802,-0.506470,-0.011230,0.758789,12.770386,5.046844,-1.525269,1,1,1,1,1,85.000000
2024-12-18 12:39:45.617,0.3028149531735664,0.2137781457099509,0.801680064489859,0.1827168382361023,0.4525416996422638,0.3493933807046811,0.8018852886719638,0.6020378252355629,1.026765761844545,0.3952625867873615,0.3006900295006537,0.813746427208427,0.7021445646733857,0.1905995637495624,0.2400055119263616,0.8963867225526509,0.3207110265482624,0.02114725561838224,-0.03309572778891466,0.6839037947276553,769.1941391941392,804.6520146520147,826.007326007326,806.6666666666667,1622.197802197802,1622.197802197802,-0.398926,-0.088135,0.896301,1.839294,-9.211426,-6.736603,1,1,1,1,1,85.000000
2024-12-18 12:39:46.130,0.05680735648361659,0.2358291704487704,1.004659251966185,0.234798116035404,0.37746343188727,0.4448843736071897,0.9162669066082184,0.6837981638169647,1.025994964061185,0.3952625867873615,0.4756945413854262,0.8619325665899339,0.6733635419935309,0.1149188855618366,0.2211952393952968,0.6793551068450719,0.4800484785387351,-0.02222979929404645,-0.231432303961493,0.4884257938491352,786.5201465201466,810.6959706959707,821.5750915750916,809.4871794871796,1165.274725274725,1450.952380952381,-0.403992,0.032043,0.752197,-1.891632,3.386993,3.162689,1,1,1,1,1,85.000000
2024-12-18 12:39:46.618,0.09966469017585614,0.2155642366462912,1.139780593785309,0.325920127744345,0.297435472288976,0.4419852793928161,0.9152137378097195,0.6843469079475764,0.8654950037296649,0.4439724735716714,0.4899045670168057,0.9109028705335678,0.645113894156198,0.1306846948902874,0.2749120049271616,0.6511607761444432,0.6026204989656431,-0.101777890793781,-0.3025573640638101,0.3903502221524902,798.6080586080586,786.1172161172161,803.8461538461539,801.4285714285714,642.6739926739926,357.3992673992674,-0.539856,-0.044128,0.942017,3.985138,0.957031,4.172058,1,1,1,1,1,85.000000
2024-12-18 12:39:47.118,0.3638609078537065,0.4204897175467526,1.173347592612463,0.5258371550531604,0.4223699512407986,0.4796027070381412,0.9558162471041054,0.7830783764000487,0.8818433754644681,0.413734229240075,0.5876122862680905,0.9264206961601985,0.6925147162600316,0.2068963893815164,0.2776285205674229,0.636006443000072,0.7113519532943179,-0.1081570755460288,-0.2208531092810442,0.4505398039527321,805.4578754578755,810.2930402930403,814.7252747252747,815.934065934066,996.4468864468864,1076.227106227106,-0.528442,-0.040344,0.939148,-2.818756,6.123505,2.377625,1,1,1,1,1,85.000000
2024-12-18 12:39:47.618,0.442866703955935,0.6383834850142209,1.250599101017395,0.9580864928116203,0.5163224329087018,0.440977259293322,0.9023267167401717,1.012761575551559,0.674212690389028,0.2963200848325542,0.5980975951417273,1.181393099297771,0.6005849324316405,0.1937833050678887,0.2258152775372815,0.6079524858951659,0.7660940184690916,-0.1717439877833158,-0.1510609597367346,0.506287035778587,810.2930402930403,791.3553113553114,798.6080586080586,825.2014652014652,2.417582417582418,0,-0.423767,-0.009644,0.770264,-1.151428,2.422485,-1.929016,1,1,1,1,1,85.000000
2024-12-18 12:39:47.652,,,,,,,,,,,,,,,,,,,,,,,,,,,,,,,,,,,,,,,/muse/elements/blink
2024-12-18 12:39:48.118,0.6489570171340268,0.6855108976430458,1.214867324000745,1.125787513791681,0.6174019217405016,0.4964414140467569,0.8329022666520405,1.106473249876952,0.4955730302161717,0.3989359428599041,0.5389891100267948,1.138850751203074,0.7054874466598922,0.2465633144605583,0.108529316168016,0.6371838382164804,0.7531462514837191,-0.1139542136955928,-0.1307488454541587,0.6236810323468436,847.7655677655678,790.952380952381,777.6556776556777,845.3479853479854,141.025641025641,0,-0.467224,-0.033264,0.816162,-1.181335,-2.033691,3.028107,1,1,1,1,1,85.000000
2024-12-18 12:39:48.126,,,,,,,,,,,,,,,,,,,,,,,,,,,,,,,,,,,,,,,/muse/elements/blink
2024-12-18 12:39:48.618,0.6489570171340268,0.6200249772870801,1.286032164856237,1.338353046840764,0.6174019217405016,0.4708032902638892,0.9960233923941713,1.272736667041058,0.4955730302161717,0.5021524851337116,0.6007608006216985,1.138850751203074,0.7054874466598922,0.4080090724806405,0.201119815160086,0.6989551799159356,0.7531462514837191,0.02203717781396189,-0.1315886617017731,0.6731129306647186,800.2197802197802,800.2197802197802,801.025641025641,799.0109890109891,339.2673992673993,3.223443223443224,-0.465332,0.055176,0.719421,-5.809479,-2.026215,-3.596344,1,1,1,1,1,85.000000
2024-12-18 12:39:49.119,0.6489570171340268,0.5501030222170487,1.287796675435717,1.338353046840764,0.6174019217405016,0.5692609761835024,1.296308824897282,1.272736667041058,0.4955730302161717,0.4888489783544159,0.7914648845484591,1.138850751203074,0.7054874466598922,0.4420694967758631,0.1861274066465005,0.6989551799159356,0.7531462514837191,0.07696356366995812,-0.1471941339101684,0.6731129306647186,774.0293040293041,784.9084249084249,807.8754578754579,781.6849816849817,734.1391941391942,538.7179487179487,-0.436951,-0.007751,0.833008,3.147736,-11.230164,13.076935,1,1,1,1,1,85.000000
2024-12-18 12:39:49.623,0.6489570171340268,0.8358982854140884,1.297691218862954,1.338353046840764,0.6174019217405016,0.5928218893225542,1.298728591609159,1.272736667041058,0.4955730302161717,0.4827150457858516,0.967544348080186,1.138850751203074,0.7054874466598922,0.4821901830609227,0.3252813232621328,0.6989551799159356,0.7531462514837191,0.1010950719517029,-0.08158019013705556,0.6731129306647186,798.2051282051282,795.7875457875458,792.5641025641025,803.040293040293,1146.336996336996,1236.593406593407,-0.418945,0.002014,0.805664,-1.256104,-3.977661,-9.181519,1,1,1,1,1,85.000000
2024-12-18 12:39:50.117,1.012124256854524,0.9093491424873108,1.233212792415072,1.057037931710137,1.0431214137433,0.6673765177745987,1.211676252259121,1.092601630161158,0.969264870422782,0.4187041289260696,1.002736182348779,1.029565804720794,0.7055296049661962,0.37082934692995,0.472078587726185,0.861385081147419,0.4736272260945125,0.09063365521754482,0.005700045034741024,0.7821417512611866,797.8021978021978,801.8315018315019,809.0842490842491,799.0109890109891,1622.197802197802,1622.197802197802,-0.455688,-0.094360,0.835144,1.831818,-7.282410,-4.403839,1,1,1,1,1,85.000000
2024-12-18 12:39:50.618,0.9101639689812967,0.7786348495020424,1.126463183656007,0.9569380926362864,0.8941836031501702,0.451796904176839,1.089706419947511,0.9505022733401789,1.044330769380811,0.5596229456891715,0.9852278911753422,1.165827726703197,0.7492733408693156,0.5095799039785288,0.6101658678329692,0.9113566030215556,0.5014284472134083,0.0843315021846499,0.09542095487694009,0.7395010284429555,803.040293040293,810.6959706959707,814.3223443223443,796.996336996337,1281.721611721612,1626.630036630037,-0.540161,0.024048,0.913208,-0.762634,2.998199,-4.882355,1,1,1,1,1,85.000000
2024-12-18 12:39:51.118,0.876462562075236,0.2237854438988506,0.9884014735079664,0.8433540169614607,0.7545699032959826,0.210043628129669,0.9880420945957892,0.7473937146394573,1.034943630449015,0.55335879023236,0.8612164506692704,1.159953212390175,0.7302455385630456,0.4871256213243916,0.5895914681667549,0.8899142767631625,0.4951211270823467,0.04669808801687755,0.1750357422010975,0.7183632612442368,711.5750915750916,789.7435897435897,831.2454212454213,689.4139194139194,298.1684981684982,10.07326007326007,-0.488647,-0.021057,0.984314,5.024414,2.138367,-2.317810,1,1,1,1,1,85.000000
2024-12-18 12:39:51.303,,,,,,,,,,,,,,,,,,,,,,,,,,,,,,,,,,,,,,,/muse/elements/blink
2024-12-18 12:39:51.620,0.8836344424511671,0.1556415371279998,1.012499608943402,1.18527930352866,0.5532321642497195,0.1773701569366104,1.010149895838971,1.274496010613631,0.8387844930215614,0.5434134598450261,0.848693801862795,1.483915905523685,0.7800958468122894,0.4850532634822819,0.5114321430144668,1.024072680045584,0.5484660927554433,0.1386044478998029,0.2105756076085299,0.6546673861189518,820.7692307692308,809.8901098901099,806.6666666666667,810.6959706959707,1011.758241758242,1243.040293040293,-0.690674,-0.006348,1.002747,2.033691,-4.433746,-4.112244,1,1,1,1,1,85.000000
2024-12-18 12:39:52.118,1.05743423967935,0.4205730180209307,0.9919062517061317,1.388418350785371,0.5965455293212294,0.397967313682476,0.9874212943834165,1.49514752749275,0.7453539737824124,0.5344628673355387,0.5435658281999565,1.483915905523685,0.79405489804375,0.486010745076614,0.3521087318596742,1.059946507655177,0.5963460672543235,0.2840678303010913,0.2526004619316687,0.6635803829902632,792.967032967033,806.2637362637363,819.1575091575091,828.8278388278388,294.1391941391942,91.46520146520147,-0.549683,0.032715,0.848267,-2.175751,-1.375732,2.564545,1,1,1,1,1,85.000000
2024-12-18 12:39:52.617,1.05743423967935,0.5250796161756952,1.138734705230549,1.338164655244296,0.5965455293212294,0.5459089890173433,1.027879892543418,1.432662076793776,0.7453539737824124,0.5211701738418435,0.1920193191090802,1.456442612856354,0.79405489804375,0.4808896180503164,0.1281628242878088,1.099267027088824,0.5963460672543235,0.3435842781983034,0.2888992606957762,0.7266174959282798,801.8315018315019,780.4761904761905,788.5347985347986,794.1758241758242,48.35164835164835,0,-0.467651,0.009705,0.762085,3.633728,-0.904694,8.074951,1,1,1,1,1,85.000000
2024-12-18 12:39:53.126,0.8073102981652734,0.5632834098515871,1.235290708209803,1.097753551081202,0.5585765620207428,0.4757824258960031,0.9981336000114084,0.7695512206066775,0.9794557547103083,0.5324022895414307,0.2488485348852886,1.089305078142097,0.9465822185348803,0.5185086067297563,0.3137462415438969,1.117985380891733,0.4684328118151586,0.3963009234176857,0.4195114908809948,0.7500811715837403,776.8498168498169,784.1025641025641,784.5054945054945,767.985347985348,641.0622710622711,337.2527472527473,-0.478210,-0.016296,0.715149,-2.310333,-2.272949,-7.820740,1,1,1,1,1,85.000000
2024-12-18 12:39:53.620,0.7882548054959341,0.5255326090061555,1.235290708209803,1.210178997980955,0.4994143926773241,0.409966168612816,0.9981336000114084,0.8764524010268758,0.9938210462052465,0.5221122347734041,0.2488485348852886,1.094695033843457,0.8453075160202362,0.4590140778510041,0.3137462415438969,1.079499462969595,0.6266530044918374,0.4328592634973794,0.4195114908809948,0.8387123594914493,777.6556776556777,789.7435897435897,801.4285714285714,786.5201465201466,1560.952380952381,1622.600732600733,-0.521545,-0.093994,0.816956,-4.074860,1.749573,5.263672,1,1,1,1,1,85.000000
2024-12-18 12:39:54.118,0.7443107014089647,0.5511265906375034,1.231216661214032,1.229932174323892,0.4964810252494969,0.3356992007191536,1.001396078394694,0.9873405764834633,0.9298508189057216,0.3716984044203979,0.1987248602396378,1.088631175232913,0.7611605740371656,0.4705783586771785,0.3735239552422438,1.083985823997937,0.7033196581629809,0.4030461727018342,0.4389000626489999,0.8336688762695001,728.901098901099,814.3223443223443,817.948717948718,732.1245421245421,1622.600732600733,1622.197802197802,-0.557617,0.009399,0.918213,8.912354,1.921539,-3.454285,1,1,1,1,1,85.000000
2024-12-18 12:39:54.383,,,,,,,,,,,,,,,,,,,,,,,,,,,,,,,,,,,,,,,/muse/elements/blink
2024-12-18 12:39:54.631,0.723703310175525,0.5704113302243554,1.242853686342277,1.26986963370422,0.5287809640944929,0.5805241644823834,1.01416009525151,1.065493457275295,0.7855780481250246,0.5399249858239678,0.1388249548584554,0.9830148013139397,0.6472150693820492,0.4649596914628774,0.408684290249225,1.074475668549621,0.7580895772223767,0.3930835699399629,0.4153695862546646,0.8771709593422359,802.2344322344322,805.4578754578755,823.1868131868132,822.3809523809524,1622.197802197802,1622.197802197802,-0.469727,-0.041504,0.856384,-6.377716,2.459869,0.358887,1,1,1,1,1,85.000000
2024-12-18 12:39:55.117,0.6922467712098586,0.7628615454792925,1.242853686342277,1.238398565265688,0.6068334261265833,0.6757674789028233,1.01416009525151,1.148392793386142,0.5826139783220292,0.6060206717164104,0.1388249548584554,0.9466349442540459,0.6031969885203249,0.3988562704974402,0.408684290249225,1.124426073212424,0.7344358096769151,0.2993084256382725,0.4153695862546646,0.7940849330556052,806.6666666666667,801.025641025641,813.1135531135532,821.5750915750916,845.3479853479854,705.5311355311355,-0.503479,0.052124,0.886780,1.600037,-0.635529,-11.297455,1,1,1,1,1,85.000000
2024-12-18 12:39:55.622,0.6600704343991685,1.098734076321925,1.242853686342277,1.155810449350532,0.6657780556282679,0.888423959585228,1.01416009525151,1.029127232724536,0.5726396716905864,0.6224873100390196,0.1388249548584554,0.9858240697081975,0.6303445248470118,0.375123326153079,0.408684290249225,1.048958277229344,0.7314558450007573,0.3181978136543419,0.4153695862546646,0.8952430826741082,799.4139194139194,793.7728937728938,794.981684981685,808.2783882783883,585.0549450549451,798.2051282051282,-0.751892,-0.051880,1.193726,-1.697235,2.130890,1.368256,1,1,1,1,1,85.000000
2024-12-18 12:39:56.118,0.8592723599525773,1.10816567347407,1.274572108872573,0.9822997646352999,0.6116679464937764,0.8002901537227458,1.329288298506835,0.9814947637233057,0.71766120208571,0.5761859698062617,0.7866333388264656,0.9985400872515909,0.5746540671540663,0.2509163099173022,0.3007436198102427,0.9032441627454882,0.05743074048910033,0.1695172086146836,-0.04625385375789308,0.7631040023514571,801.025641025641,808.6813186813187,809.8901098901099,801.8315018315019,1226.117216117216,1616.556776556777,-0.583740,-0.043152,0.877014,1.196289,1.562653,3.476715,1,1,1,1,1,85.000000
2024-12-18 12:39:56.618,0.7009526424316475,1.017849231428612,1.286622537999961,0.9284896854367758,0.6396526519630421,0.7156273659547413,1.247283669482578,0.9125601703952398,0.7621982701318392,0.5394601537173271,0.7866333388264656,1.005285280957028,0.562551764663563,0.2340733499942008,0.2292978438548424,0.8478459742323792,0.1312173252213072,0.04031815958403376,-0.02468836595788765,0.663479169466627,806.2637362637363,808.6813186813187,806.2637362637363,822.3809523809524,0,0,-0.596924,-0.006470,0.803955,1.241150,1.831818,-2.385101,1,1,1,1,1,85.000000
2024-12-18 12:39:57.118,0.3996583975834704,0.4715078828772482,1.177729528530661,0.6852622827519195,0.4443702056733337,0.3529673462015515,1.091039995218238,0.919472007168879,0.6776709375564834,0.4635575016278704,0.7520504730992544,0.9922017847694972,0.4759265867544586,0.08380555504142216,0.1510853509741042,0.6916302226654604,0.1467099729554963,-0.06034679661738591,-0.05614460606192327,0.4901944852257147,801.4285714285714,813.5164835164835,787.7289377289378,774.8351648351648,0,0,-0.437134,-0.041260,0.739319,0.336456,-1.547699,6.639404,1,1,1,1,1,85.000000
2024-12-18 12:39:57.625,0.4121001258132111,0.5847453203187375,1.22019679444636,0.6324632995228401,0.4730421793809751,0.5757658740825711,1.089772190099832,0.9858597591831605,0.7662417272804227,0.5946584275210364,0.8649113313270399,1.048744547885975,0.5525032245273301,0.1125592647190383,0.1141292444606337,0.7088229609095701,0.279217323001552,-0.07894128381113236,0.02697076110592379,0.3971525102151914,799.4139194139194,797.3992673992674,782.0879120879121,798.2051282051282,41.90476190476191,0,-0.459229,-0.037537,0.711792,-11.656342,-0.186920,0.807495,1,1,1,1,1,85.000000
2024-12-18 12:39:57.875,,,,,,,,,,,,,,,,,,,,,,,,,,,,,,,,,,,,,,,/muse/elements/blink
2024-12-18 12:39:58.126,0.4692081392239912,0.6958303704176994,1.118732024303953,0.5771642623967498,0.305272122421923,0.6811668315324864,1.172889401539062,1.045454663042787,0.7237661240476128,0.5760760870468291,0.8924064676519725,1.001295131107211,0.5668152248134479,0.1082695181708439,0.3532414537046869,0.6746153386117165,0.3275225442777305,-0.02394137222795042,0.07823437058950852,0.4556346043403588,799.4139194139194,785.3113553113553,783.2967032967033,802.2344322344322,363.0402930402931,53.18681318681319,-0.460266,-0.045715,0.731384,5.712280,-6.205750,9.607697,1,1,1,1,1,85.000000
2024-12-18 12:39:58.495,,,,,,,,,,,,,,,,,,,,,,,,,,,,,,,,,,,,,,,/muse/elements/blink
2024-12-18 12:39:58.618,0.4442173695399652,0.7302664046557634,1.182933776635054,0.6586103059030473,0.2831268276980741,0.6862345663946382,1.259362004254624,1.056536767210364,0.6849633059763773,0.6290484516385666,0.9005222764802794,0.9769803838840863,0.6408218468580001,0.1253423949279677,0.4566914382944286,0.7201091462713465,0.4042852500195374,-0.01950447819330381,0.171833116754634,0.4724183857211547,813.1135531135532,801.8315018315019,790.1465201465202,832.8571428571429,680.952380952381,725.6776556776557,-0.439270,0.041138,0.716492,0.059814,-1.637421,-9.383392,1,1,1,1,1,85.000000
2024-12-18 12:39:59.127,0.2092881476011184,0.7973213112259984,1.048079518719002,0.7189275727930227,0.267900563580853,0.5231098669758169,1.242504722173188,0.9380766763393867,0.6481164078886856,0.5232302337682532,0.9081993958502745,0.8414846964701193,0.6812147183999091,0.2801894959631959,0.5883088021425933,0.6219122926712533,0.4632775836636547,0.1490637240160463,0.2095422153762392,0.5693316302883665,791.3553113553114,796.996336996337,784.1025641025641,790.1465201465202,1249.89010989011,1545.641025641026,-0.465576,-0.012817,0.799194,-2.018738,-12.202148,15.290070,1,1,1,1,1,85.000000
2024-12-18 12:39:59.623,0.2092881476011184,0.6900296015154727,1.250995554264982,0.7189275727930227,0.267900563580853,0.2468893543543436,1.100911137273364,0.9380766763393867,0.6481164078886856,0.7587281116015873,0.6160231761932408,0.8414846964701193,0.6812147183999091,0.4477644402460324,0.5023712793271937,0.6219122926712533,0.4632775836636547,0.2705002920766809,0.1932794693823545,0.5693316302883665,796.996336996337,799.0109890109891,801.8315018315019,811.0989010989011,1622.197802197802,1622.197802197802,-0.585693,0.125671,0.787231,2.228088,-2.198181,-3.887939,1,1,1,1,1,85.000000
2024-12-18 12:40:00.118,1.254124359892503,0.6889364280505911,1.23054293775273,1.600582358955682,0.8852623823793939,0.3208047874625241,1.016911317170751,1.055808692889052,0.999612683644323,0.7577667413263549,0.8196961572562755,1.121781315685945,1.159420238963388,0.5543349405694421,0.481817503150834,1.250906719534338,1.079594776011461,0.3371024035694351,0.2565254899397025,0.8639041804075263,804.2490842490843,811.0989010989011,803.040293040293,796.5934065934066,1062.124542124542,1522.673992673993,-0.440491,-0.028259,0.671021,-1.749573,12.291870,0.672913,1,1,1,1,1,85.000000
2024-12-18 12:40:00.618,1.076041118097659,0.4039172455853026,1.203631791599415,1.453783268196339,0.8098563278737008,0.4133381926626068,1.031018092839557,1.034515200133762,1.017120651504939,0.8341804806190475,0.8171905698250896,1.264188221746536,0.9835279214097713,0.6165710958810853,0.5220564564629036,1.133705099389879,1.015567238516003,0.4319827514503005,0.2734938310659706,0.8419218787582858,788.1318681318681,794.981684981685,831.6483516483516,813.919413919414,700.6959706959707,705.5311355311355,-0.665161,-0.044556,1.072449,-1.263580,8.045044,-0.119629,1,1,1,1,1,85.000000
2024-12-18 12:40:01.127,0.9711565789344397,0.4229405172116497,1.126667701098942,1.397749395724359,0.7794241456012414,0.6265614197070012,1.081262252541296,1.103159192377894,1.02637586322472,0.8336225970628053,0.7581863126249457,1.351768092755913,1.022491817449414,0.7011609765835835,0.5485301049629578,1.208643062553335,1.005479554419901,0.7086485171091477,0.378078820432395,1.113406694814655,765.1648351648352,794.5787545787546,804.2490842490843,754.2857142857143,740.989010989011,892.893772893773,-0.467468,-0.054504,0.868591,5.652466,-3.289795,10.265656,1,1,1,1,1,85.000000
2024-12-18 12:40:01.352,,,,,,,,,,,,,,,,,,,,,,,,,,,,,,,,,,,,,,,/muse/elements/blink
2024-12-18 12:40:01.617,0.8401317489879182,0.3144446102325861,1.030366922569685,1.201979799608432,0.8677200936039691,0.7395920114643073,1.118398498820439,1.18238979197578,0.9269766225305383,0.7220947248559386,0.7442538687288872,1.363062813944478,0.9244844871332691,0.6953615856589944,0.6662666238979158,1.178046587842721,0.9714141914745039,0.7386873757306329,0.3008315256835928,1.224189200730228,799.8168498168499,803.4432234432235,809.4871794871796,801.025641025641,1152.783882783883,1581.904761904762,-0.622437,0.011169,0.989075,-2.078552,-5.136566,-6.661835,1,1,1,1,1,85.000000
2024-12-18 12:40:02.118,0.8337309386635247,0.3400185142347013,1.030366922569685,1.14050912957066,0.9325314268744067,0.7455211139124316,1.118398498820439,1.260932977634609,0.9026565845889438,0.7010424373006642,0.7442538687288872,1.295287068862278,1.001851004806569,0.7035739367729009,0.6662666238979158,1.257417324216126,0.9804575391243503,0.715986501034245,0.3008315256835928,1.362990240464003,790.952380952381,790.1465201465202,809.0842490842491,820.3663003663004,109.5970695970696,3.223443223443224,-0.563538,0.001343,0.927002,-3.633728,3.050537,2.071075,1,1,1,1,1,85.000000
2024-12-18 12:40:02.619,0.8376552964401214,0.3733394978372482,1.030366922569685,0.685467619520867,0.992556534049248,0.699980935362429,1.118398498820439,1.126363499468874,0.8180593919478865,0.7235576549131377,0.7442538687288872,1.160963904234407,0.8446717626462898,0.640295562473892,0.6662666238979158,1.042328262862849,0.877171417258695,0.4235818514567393,0.3008315256835928,1.142424818079884,789.3406593406594,807.4725274725275,807.0695970695971,796.996336996337,153.1135531135531,10.87912087912088,-0.496399,-0.051331,0.883667,-3.686066,4.553375,3.985138,1,1,1,1,1,85.000000
2024-12-18 12:40:03.123,0.1311665980641776,0.638803558598077,1.030366922569685,0.7758679928420178,0.6487613265241045,0.6675028756771146,1.118398498820439,0.9366068021735975,0.7484792507064003,0.7180380112876471,0.7442538687288872,0.9629923288176456,0.7979842244448272,0.6131167272056666,0.6662666238979158,0.9292411270089046,0.6461174183517269,0.3515292164192128,0.3008315256835928,0.7008563665834104,797.3992673992674,802.2344322344322,792.967032967033,788.1318681318681,104.3589743589744,0,-0.449707,-0.039856,0.743469,-2.990723,-2.661743,-0.904694,1,1,1,1,1,85.000000
2024-12-18 12:40:03.398,,,,,,,,,,,,,,,,,,,,,,,,,,,,,,,,,,,,,,,/muse/elements/blink
2024-12-18 12:40:03.617,0.1311665980641776,0.7911713401184112,1.090067226193252,0.7894762953542884,0.6487613265241045,0.6011913524743895,1.255288002047618,1.104495542347074,0.7484792507064003,0.7319178342822038,0.4859097293586299,1.142173611915119,0.7979842244448272,0.4954781110991835,0.6555561727895231,0.9157432715345938,0.6461174183517269,0.296349812135686,0.1674612411470201,0.6952059258099743,782.4908424908425,798.2051282051282,781.6849816849817,778.0586080586081,561.6849816849817,68.90109890109891,-0.433655,-0.054077,0.760315,3.730927,-0.104675,13.675079,1,1,1,1,1,85.000000
2024-12-18 12:40:04.118,0.08600997434182528,0.7680410657925857,1.103689506342357,0.8285690059586279,0.6724119643318984,0.6185134357650197,1.288319254726942,1.17165780548949,0.7260122373013407,0.6748780450296696,0.4832604915083556,1.132366138201814,0.7828152963051602,0.392251924705232,0.6381269216134009,0.8950877792327172,0.633643758798049,0.2342960821820058,0.1509282668219567,0.6634323415359826,796.996336996337,797.3992673992674,799.4139194139194,807.4725274725275,879.1941391941392,795.7875457875458,-0.411072,0.103149,0.750549,-4.373932,-9.495544,3.140259,1,1,1,1,1,85.000000
2024-12-18 12:40:04.600,,,,,,,,,,,,,,,,,,,,,,,,,,,,,,,,,,,,,,,/muse/elements/blink
2024-12-18 12:40:04.617,0.08462640526748273,0.5793952938714536,1.120687251204711,0.8386840461570387,0.6904848132956756,0.444801687327076,1.22994753546391,1.343551624235205,0.7030155996101607,0.6691880985941177,0.5397424630834523,1.118622094140682,0.7205204240284244,0.2644308437661338,0.5814045995118604,0.9272005824811197,0.6128801624192237,0.1576840201217346,0.130719954541169,0.6505725946716616,827.2161172161173,801.8315018315019,783.6996336996338,832.4542124542124,1545.238095238095,1622.197802197802,-0.486389,-0.068481,0.800354,2.572021,0.934601,-2.302856,1,1,1,1,1,85.000000
2024-12-18 12:40:05.124,0.08462640526748273,0.4037506548958445,1.373032862876954,0.8386840461570387,0.6904848132956756,0.5037410864215109,0.8609996845917293,1.343551624235205,0.7030155996101607,0.6484618212433245,0.7065537725547683,1.118622094140682,0.7205204240284244,0.4552198815975418,0.4647381887250684,0.9272005824811197,0.6128801624192237,0.1350896079588302,0.1444331658833519,0.6505725946716616,788.5347985347986,789.3406593406594,802.2344322344322,746.6300366300367,1252.710622710623,1388.498168498169,-0.491516,0.113770,0.765564,3.229980,1.742096,-0.336456,1,1,1,1,1,85.000000
2024-12-18 12:40:05.618,0.08462640526748273,0.346308816331975,1.373032862876954,0.8386840461570387,0.6904848132956756,0.4741697552330916,0.8609996845917293,1.343551624235205,0.7030155996101607,0.6484618212433245,0.7065537725547683,1.118622094140682,0.7205204240284244,0.4827349784192608,0.4647381887250684,0.9272005824811197,0.6128801624192237,0.1647148523464517,0.1444331658833519,0.6505725946716616,806.6666666666667,824.7985347985348,826.007326007326,851.3919413919414,1622.197802197802,1622.197802197802,-0.536316,0.013367,0.922668,1.585083,-2.272949,-12.508698,1,1,1,1,1,85.000000
2024-12-18 12:40:06.118,1.148732846098031,0.4366111394040273,1.422750179709598,0.8720874079137603,1.134293202434461,0.5056191351869639,0.9347871580543938,1.31143716116356,0.7863146316699593,0.6688007015328538,0.9743606927697934,1.190855036895227,0.9549078588170482,0.5197799875596777,0.4645369460609732,1.139904506041413,0.5500692412350636,0.07840666074241601,0.128261110159759,0.6346571186551349,840.5128205128206,821.1721611721612,793.7728937728938,812.7106227106227,392.8571428571429,117.6556776556777,-0.654541,-0.037842,1.003052,0.971985,4.874878,-4.658051,1,1,1,1,1,85.000000
2024-12-18 12:40:06.214,,,,,,,,,,,,,,,,,,,,,,,,,,,,,,,,,,,,,,,/muse/elements/blink
2024-12-18 12:40:06.620,1.148732846098031,0.4930733938271473,1.44396197018661,0.8720874079137603,1.134293202434461,0.4556906378891613,0.9509940855043877,1.31143716116356,0.7863146316699593,0.5068522908018929,0.966841443128282,1.190855036895227,0.9549078588170482,0.417059170527011,0.5058882292466984,1.139904506041413,0.5500692412350636,0.1908857490776842,0.1435200013551255,0.6346571186551349,786.1172161172161,813.1135531135532,814.7252747252747,797.3992673992674,153.5164835164835,5.641025641025641,-0.631287,-0.007507,1.079346,-0.321503,2.078552,7.626343,1,1,1,1,1,85.000000
2024-12-18 12:40:07.118,1.148732846098031,0.5735220369723909,1.44396197018661,0.8720874079137603,1.134293202434461,0.3503937488711068,0.9509940855043877,1.31143716116356,0.7863146316699593,0.5610273456885643,0.966841443128282,1.190855036895227,0.9549078588170482,0.3966603588103688,0.5058882292466984,1.139904506041413,0.5500692412350636,0.3271547004837581,0.1435200013551255,0.6346571186551349,809.4871794871796,817.1428571428571,819.5604395604396,808.2783882783883,446.4468864468865,83.00366300366301,-0.646606,-0.031006,0.842041,-2.302856,6.684265,-0.022430,1,1,1,1,1,85.000000
2024-12-18 12:40:07.617,1.148732846098031,0.5500366519133542,1.44396197018661,0.8074495541326103,1.134293202434461,0.1817653796766305,0.9509940855043877,1.212986495823194,0.7863146316699593,0.5559410046268703,0.966841443128282,1.15750223497542,0.9549078588170482,0.4730027706528295,0.5058882292466984,1.105189554589839,0.5500692412350636,0.4525449440298414,0.1435200013551255,0.6533138134922629,791.3553113553114,789.7435897435897,806.6666666666667,789.7435897435897,0,0,-0.413513,-0.008057,0.827881,-1.196289,-3.087921,1.203766,1,1,1,1,1,85.000000
2024-12-18 12:40:08.118,0.700060375906671,0.490094530056251,1.44396197018661,0.9787624160169034,0.1707755863860376,0.07433621926737682,0.9509940855043877,0.4735798608632202,0.4820647397962599,0.4475763271389425,0.966841443128282,1.033154448308363,0.8533833319808071,0.465677851868999,0.5058882292466984,1.095067736251116,0.5609701739167646,0.3954328445621914,0.1435200013551255,0.8240048305897406,790.5494505494506,803.040293040293,795.3846153846154,776.8498168498169,120.8791208791209,0,-0.513367,-0.017334,0.769592,0.127106,-1.794434,1.988831,1,1,1,1,1,85.000000
2024-12-18 12:40:08.482,,,,,,,,,,,,,,,,,,,,,,,,,,,,,,,,,,,,,,,/muse/elements/blink
2024-12-18 12:40:08.618,0.7388148609094439,0.578976959514111,1.44396197018661,1.041795106530942,0.1813382760983822,0.1277034281450286,0.9509940855043877,0.4510325346110877,0.5450834515039799,0.537078234762763,0.966841443128282,1.033154448308363,0.9145790705889241,0.5267102617520103,0.5058882292466984,1.156841115314994,0.6753436482438442,0.3372361744312977,0.1435200013551255,0.8475209661140197,822.7838827838829,803.8461538461539,805.0549450549451,811.0989010989011,967.8388278388279,874.7619047619048,-0.441650,0.060913,0.756592,7.499237,-12.680664,-11.641388,1,1,1,1,1,85.000000
2024-12-18 12:40:09.117,0.8008150749265034,0.5914766184938649,1.44396197018661,1.131593632358986,0.2548876868024665,0.2941907653446827,0.9509940855043877,0.4124007592515287,0.4828316459700527,0.547768216766827,0.966841443128282,0.8229856553704613,0.899861933918694,0.5720707286451768,0.5058882292466984,1.233210556084636,0.760190213483894,0.3407737986169517,0.1435200013551255,0.8542811056323963,710.3663003663004,794.981684981685,811.0989010989011,727.2893772893773,1622.600732600733,1622.197802197802,-0.505615,-0.037170,0.865173,2.429962,-1.996307,1.450500,1,1,1,1,1,85.000000
2024-12-18 12:40:09.285,,,,,,,,,,,,,,,,,,,,,,,,,,,,,,,,,,,,,,,/muse/elements/blink
2024-12-18 12:40:09.628,0.8008150749265034,0.5479027768267506,1.44396197018661,1.237894956880186,0.2548876868024665,0.3149196827184211,0.9509940855043877,0.3177517659911875,0.4828316459700527,0.5490372371976826,0.966841443128282,0.7768611350610097,0.899861933918694,0.6969867583648688,0.5058882292466984,1.327364406588645,0.760190213483894,0.3689752005558589,0.1435200013551255,0.9421832218886015,778.8644688644689,795.3846153846154,821.1721611721612,826.007326007326,1622.197802197802,1622.197802197802,-0.504089,0.007141,0.908142,3.058014,6.033783,-18.961182,1,1,1,1,1,85.000000
2024-12-18 12:40:10.122,0.8008150749265034,0.365707426082406,1.44396197018661,1.237894956880186,0.2548876868024665,0.2450506360306725,0.9509940855043877,0.3177517659911875,0.4828316459700527,0.4416453824319206,0.966841443128282,0.7768611350610097,0.899861933918694,0.6893807423401951,0.5058882292466984,1.327364406588645,0.760190213483894,0.4387098659044822,0.1435200013551255,0.9421832218886015,770.4029304029305,797.8021978021978,805.8608058608058,804.2490842490843,1504.542124542125,1622.197802197802,-0.381531,-0.174866,0.821106,7.289886,-17.749939,11.491852,1,1,1,1,1,85.000000
2024-12-18 12:40:10.487,,,,,,,,,,,,,,,,,,,,,,,,,,,,,,,,,,,,,,,/muse/elements/blink
2024-12-18 12:40:10.617,0.8008150749265034,0.3195039661058662,1.44396197018661,1.237894956880186,0.2548876868024665,-0.08054285128011167,0.9509940855043877,0.3177517659911875,0.4828316459700527,0.3679783283548155,0.966841443128282,0.7768611350610097,0.899861933918694,0.6356561104458754,0.5058882292466984,1.327364406588645,0.760190213483894,0.527641424888222,0.1435200013551255,0.9421832218886015,803.040293040293,794.981684981685,802.6373626373627,780.4761904761905,541.1355311355311,364.6520146520147,-0.634583,-0.052734,1.078857,0.142059,0.792542,-1.914062,1,1,1,1,1,85.000000
2024-12-18 12:40:11.118,0.8008150749265034,0.2491253058365512,1.44396197018661,1.237894956880186,0.2548876868024665,-0.1264081352423589,0.9509940855043877,0.3177517659911875,0.4828316459700527,0.4960971641427934,0.966841443128282,0.7768611350610097,0.899861933918694,0.5450701561557836,0.5058882292466984,1.327364406588645,0.760190213483894,0.5699923409123983,0.1435200013551255,0.9421832218886015,820.7692307692308,801.8315018315019,787.3260073260074,794.1758241758242,48.75457875457876,0.4029304029304029,-0.641357,0.020813,0.900513,-2.788849,-1.383209,5.570221,1,2,1,1,2,85.000000
2024-12-18 12:40:11.614,,,,,,,,,,,,,,,,,,,,,,,,,,,,,,,,,,,,,,,/muse/elements/blink
2024-12-18 12:40:11.629,0.8008150749265034,0.3948333243511798,1.44396197018661,1.237894956880186,0.2548876868024665,0.1272207952939539,0.9509940855043877,0.3177517659911875,0.4828316459700527,0.7414871168605567,0.966841443128282,0.7768611350610097,0.899861933918694,0.4822069371743187,0.5058882292466984,1.327364406588645,0.760190213483894,0.5233922306690242,0.1435200013551255,0.9421832218886015,812.3076923076924,792.967032967033,788.1318681318681,809.4871794871796,359.4139194139194,114.8351648351648,-0.544556,-0.057983,0.872131,-1.779480,-0.127106,2.579498,1,2,1,1,2,85.000000
2024-12-18 12:40:12.117,0.8008150749265034,0.5141554137385815,1.44396197018661,1.237894956880186,0.2548876868024665,0.2377531078458776,0.9509940855043877,0.3177517659911875,0.4828316459700527,0.7755519212563727,0.966841443128282,0.7768611350610097,0.899861933918694,0.5202629216209708,0.5058882292466984,1.327364406588645,0.760190213483894,0.3940972159810192,0.1435200013551255,0.9421832218886015,774.8351648351648,799.8168498168499,787.3260073260074,745.8241758241759,0,5.238095238095238,-0.486389,0.056152,0.739136,-2.758942,3.162689,-3.790741,1,2,1,1,2,85.000000
2024-12-18 12:40:12.618,0.8008150749265034,0.5078044508882773,1.359272391999569,1.237894956880186,0.2548876868024665,0.3013722890879644,0.8641311131239304,0.3177517659911875,0.4828316459700527,0.769158113220996,0.4798458797627752,0.7768611350610097,0.899861933918694,0.5092428214518611,0.6980612236343099,1.327364406588645,0.760190213483894,0.3248301059920543,0.4915741058843205,0.9421832218886015,810.2930402930403,790.952380952381,776.8498168498169,809.4871794871796,63.26007326007326,0,-0.461365,-0.027893,0.699097,2.377625,9.944153,5.024414,1,2,1,1,2,85.000000
2024-12-18 12:40:12.647,,,,,,,,,,,,,,,,,,,,,,,,,,,,,,,,,,,,,,,/muse/elements/blink
2024-12-18 12:40:13.127,0.8008150749265034,0.7490040569268216,1.359272391999569,1.237894956880186,0.2548876868024665,0.666080423680534,0.8641311131239304,0.3177517659911875,0.4828316459700527,0.8878076862385698,0.4798458797627752,0.7768611350610097,0.899861933918694,0.6209595860492617,0.6980612236343099,1.327364406588645,0.760190213483894,0.4040576216840776,0.4915741058843205,0.9421832218886015,846.1538461538462,798.2051282051282,784.5054945054945,843.3333333333334,485.9340659340659,389.6336996336996,-0.457642,-0.027222,0.689697,-4.329071,1.136475,-3.342133,1,2,1,1,2,85.000000
2024-12-18 12:40:13.275,,,,,,,,,,,,,,,,,,,,,,,,,,,,,,,,,,,,,,,/muse/elements/blink
2024-12-18 12:40:13.617,0.8008150749265034,0.6982020224407716,1.359272391999569,1.237894956880186,0.2548876868024665,0.7446201273231857,0.8641311131239304,0.3177517659911875,0.4828316459700527,0.8676963813518954,0.4798458797627752,0.7768611350610097,0.899861933918694,0.6547246441271647,0.6980612236343099,1.327364406588645,0.760190213483894,0.4693517240133241,0.4915741058843205,0.9421832218886015,789.3406593406594,792.1611721611722,809.0842490842491,811.0989010989011,1266.007326007326,1600.43956043956,-0.453186,-0.063843,0.765503,-1.248627,-8.688049,16.030273,1,2,1,1,2,85.000000
2024-12-18 12:40:14.117,0.8008150749265034,0.8048132505500348,1.359272391999569,1.237894956880186,0.2548876868024665,0.8244494133937068,0.8641311131239304,0.3177517659911875,0.4828316459700527,0.8782423781679528,0.4798458797627752,0.7768611350610097,0.899861933918694,0.6792314236616069,0.6980612236343099,1.327364406588645,0.760190213483894,0.5225425772249439,0.4915741058843205,0.9421832218886015,821.1721611721612,803.8461538461539,779.2673992673992,803.8461538461539,1247.472527472527,1558.937728937729,-0.522522,0.055115,0.727844,9.428253,2.586975,-8.052521,1,2,1,1,2,85.000000
2024-12-18 12:40:14.242,,,,,,,,,,,,,,,,,,,,,,,,,,,,,,,,,,,,,,,/muse/elements/blink
2024-12-18 12:40:14.617,0.8008150749265034,0.7569159714681547,1.359272391999569,1.237894956880186,0.2548876868024665,0.6813728488543273,0.8641311131239304,0.3177517659911875,0.4828316459700527,0.6938052837625323,0.4798458797627752,0.7768611350610097,0.899861933918694,0.6641552184917795,0.6980612236343099,1.327364406588645,0.760190213483894,0.5069460691018085,0.4915741058843205,0.9421832218886015,794.5787545787546,793.7728937728938,831.6483516483516,815.934065934066,1622.197802197802,1622.197802197802,-0.432007,-0.061218,0.915527,4.291687,1.443024,-2.572021,1,2,1,1,2,85.000000
2024-12-18 12:40:15.078,,,,,,,,,,,,,,,,,,,,,,,,,,,,,,,,,,,,,,,/muse/elements/blink
2024-12-18 12:40:15.117,0.8008150749265034,0.8449539674541239,1.359272391999569,1.237894956880186,0.2548876868024665,0.5951869841958904,0.8641311131239304,0.3177517659911875,0.4828316459700527,0.6838412085520896,0.4798458797627752,0.7768611350610097,0.899861933918694,0.5252024255352199,0.6980612236343099,1.327364406588645,0.760190213483894,0.3900473632804798,0.4915741058843205,0.9421832218886015,829.6336996336996,811.5018315018315,802.2344322344322,825.6043956043957,887.6556776556777,1091.941391941392,-0.623535,-0.032593,0.816956,6.048737,20.703278,-8.770294,1,2,1,1,2,85.000000
2024-12-18 12:40:15.618,0.8008150749265034,0.9574717762652566,1.359272391999569,1.237894956880186,0.2548876868024665,0.6077976717661246,0.8641311131239304,0.3177517659911875,0.4828316459700527,0.6111300541937261,0.4798458797627752,0.7768611350610097,0.899861933918694,0.3778361263389524,0.6980612236343099,1.327364406588645,0.760190213483894,0.250501791022569,0.4915741058843205,0.9421832218886015,727.6923076923077,814.3223443223443,845.7509157509157,744.2124542124542,973.8827838827839,1134.249084249084,-0.529724,-0.013733,0.935303,-5.069275,-0.770111,9.577789,1,2,1,1,2,85.000000
2024-12-18 12:40:15.779,,,,,,,,,,,,,,,,,,,,,,,,,,,,,,,,,,,,,,,/muse/elements/blink
2024-12-18 12:40:16.118,0.8008150749265034,1.047803297627289,1.359272391999569,1.237894956880186,0.2548876868024665,0.6636894528921068,0.8641311131239304,0.3177517659911875,0.4828316459700527,0.5137050430516004,0.4798458797627752,0.7768611350610097,0.899861933918694,0.1814150950171046,0.6980612236343099,1.327364406588645,0.760190213483894,0.1908085311925608,0.4915741058843205,0.9421832218886015,810.6959706959707,786.9230769230769,826.8131868131868,819.5604395604396,73.33333333333333,0,-0.714355,-0.058105,1.298096,0.687866,5.839386,-9.525452,1,2,1,1,2,85.000000
2024-12-18 12:40:16.489,,,,,,,,,,,,,,,,,,,,,,,,,,,,,,,,,,,,,,,/muse/elements/blink
2024-12-18 12:40:16.623,0.8008150749265034,1.015899471497342,1.359272391999569,1.237894956880186,0.2548876868024665,0.6567478756432682,0.8641311131239304,0.3177517659911875,0.4828316459700527,0.7317409582140666,0.4798458797627752,0.7768611350610097,0.899861933918694,0.5313440141859069,0.6980612236343099,1.327364406588645,0.760190213483894,0.5740676475020849,0.4915741058843205,0.9421832218886015,783.2967032967033,782.4908424908425,794.5787545787546,788.1318681318681,691.025641025641,660.8058608058608,-0.632202,0.044250,1.182129,-4.157104,-7.686157,16.022797,1,2,1,1,2,85.000000
2024-12-18 12:40:17.117,0.8008150749265034,0.98821955239507,1.359272391999569,1.237894956880186,0.2548876868024665,0.4935544390758618,0.8641311131239304,0.3177517659911875,0.4828316459700527,0.7476186297892481,0.4798458797627752,0.7768611350610097,0.899861933918694,0.6232062458145354,0.6980612236343099,1.327364406588645,0.760190213483894,0.568619241591877,0.4915741058843205,0.9421832218886015,812.3076923076924,828.4249084249085,796.1904761904763,806.6666666666667,637.8388278388279,468.6080586080586,-0.533264,-0.034485,0.870056,1.076660,3.244934,-10.273132,1,2,1,1,2,85.000000
2024-12-18 12:40:17.617,0.8008150749265034,0.9184817558741462,1.359272391999569,1.237894956880186,0.2548876868024665,0.3790898555873546,0.8641311131239304,0.3177517659911875,0.4828316459700527,0.7388984099796525,0.4798458797627752,0.7768611350610097,0.899861933918694,0.6529687618254232,0.6980612236343099,1.327364406588645,0.760190213483894,0.5872480381070534,0.4915741058843205,0.9421832218886015,821.5750915750916,807.0695970695971,794.1758241758242,804.2490842490843,243.7728937728938,0,-0.431274,0.003052,0.724609,-1.487885,3.596344,-2.826233,1,2,1,1,2,85.000000
2024-12-18 12:40:18.117,0.8008150749265034,1.005033644158526,1.359272391999569,0.7047509519869828,0.2548876868024665,0.399644128409156,0.8641311131239304,0.7631145096379064,0.4828316459700527,0.6440780402092118,0.4798458797627752,0.953368173681447,0.899861933918694,0.6125278331474441,0.6980612236343099,0.7845126621151993,0.760190213483894,0.4732484778113548,0.4915741058843205,0.8012312766619754,807.0695970695971,797.8021978021978,797.3992673992674,790.5494505494506,804.2490842490843,907.3992673992674,-0.414856,0.012573,0.771240,5.286102,-10.781555,6.729126,1,1,1,1,1,85.000000
2024-12-18 12:40:18.617,0.8477975060281512,0.6447894177746523,1.199286689467755,0.6854588950197321,0.7736406696816283,0.5297841798227441,0.343542951534775,0.8561206550127638,1.401097386696289,0.2386284159083041,0.38626324175775,1.001345998590953,0.9670400120617059,0.3504011713930628,0.3645346736935225,0.8054016253256007,0.7422910063002635,0.1813281305043828,0.02011365671952166,0.6916155772939927,805.8608058608058,816.7399267399268,788.9377289377289,803.040293040293,661.6117216117216,395.6776556776557,-0.409424,-0.025513,0.716614,-3.611298,2.325287,-9.181519,1,1,1,1,1,85.000000
2024-12-18 12:40:19.117,0.7724004150801314,0.4084281460001912,1.097054356907331,0.6612165623889782,0.6477290605726054,0.420890895057224,0.4949427104340319,0.7799685172090229,1.401097386696289,0.4119783986762396,0.4441786164010591,1.067066816829175,0.9279699993428282,0.3356814920640643,0.3140780515923458,0.8144325342160246,0.6912860024624093,0.2388590158300039,0.04935193092346137,0.6775138943276642,791.7582417582418,795.7875457875458,792.1611721611722,796.996336996337,1038.351648351648,1129.41391941392,-0.373474,0.015320,0.812988,-2.706604,-6.676788,7.603912,1,1,1,1,1,85.000000
2024-12-18 12:40:19.617,0.7266142876238426,0.2674717684235925,1.110352836341225,0.7758222125143928,0.4800132399181729,0.340741752815973,0.6383415432774513,0.7691835629687599,1.041146274331277,0.4664342208157412,0.5262269319594094,1.094104944172317,0.8242308599309111,0.3401535423414275,0.3778253743089638,0.8274032324830277,0.6207372119018228,0.2278387405895155,0.1310525347345269,0.5250613229638893,817.5457875457876,826.007326007326,794.981684981685,836.0805860805862,1181.794871794872,1616.153846153846,-0.411377,0.028748,0.777710,3.013153,-14.011536,-0.687866,1,1,1,1,1,85.000000
2024-12-18 12:40:20.117,0.7541737453025108,0.09016456316986564,1.060954114936966,0.848252826904533,0.3344187509124633,0.2716361679625939,0.7077734735315118,0.6980747840771652,0.8763649329426665,0.4444347980268664,0.4947266911779031,1.089715786162838,0.7494718466562353,0.3083503932847351,0.3713534848909273,0.8020713693624575,0.5216594294257652,0.2269519040802518,0.1613968998335944,0.4898116977737527,861.0622710622711,823.1868131868132,807.0695970695971,827.6190476190476,1622.197802197802,1622.197802197802,-0.503662,-0.067810,0.851257,-3.020630,7.200165,12.501221,1,1,1,1,1,85.000000
2024-12-18 12:40:20.617,0.8843809828718801,0.2550099163879618,1.020231952233707,0.9710540014560209,0.4496766250977545,0.3461911459514853,0.7530156453797419,0.7904851741879878,0.8679164203477135,0.4799788573496397,0.4155365406016296,1.089715786162838,0.7004372696298437,0.4540447869928254,0.7812945225114412,0.8029842241592198,0.4836320688926513,0.3479779830437928,0.5002099343268529,0.3537736775633798,731.7216117216118,802.2344322344322,838.0952380952381,763.956043956044,1050.43956043956,1450.549450549451,-0.519287,0.092346,0.840210,-1.555176,-0.934601,0.545807,1,1,1,1,1,85.000000
2024-12-18 12:40:20.834,,,,,,,,,,,,,,,,,,,,,,,,,,,,,,,,,,,,,,,/muse/elements/blink
2024-12-18 12:40:21.117,0.7481024186576736,0.4466395438383853,0.9744102584173082,0.9471551029270083,0.3976061185662014,0.5069551972619991,0.6959162564102771,0.8963809870091657,0.8427304231002513,0.4161633584460772,0.3681421557106931,0.8586952507500564,0.7253003758627802,0.5871167048273566,0.8793857963309573,0.7201600352728825,0.4455311377050741,0.4852778020759154,0.5654613880154705,0.3605209786806997,813.1135531135532,802.2344322344322,811.0989010989011,807.4725274725275,751.0622710622711,1050.03663003663,-0.521240,-0.007690,1.032776,3.962708,-4.127197,4.134674,1,1,1,1,1,85.000000
2024-12-18 12:40:21.617,0.7481024186576736,0.641707487391481,0.9744102584173082,0.9471551029270083,0.3976061185662014,0.5606995854871639,0.6959162564102771,0.8963809870091657,0.8427304231002513,0.638176838673332,0.3681421557106931,0.8586952507500564,0.7253003758627802,0.6461822911329027,0.8793857963309573,0.7201600352728825,0.4455311377050741,0.545482393892493,0.5654613880154705,0.3605209786806997,799.4139194139194,809.4871794871796,806.6666666666667,803.8461538461539,587.0695970695971,67.28937728937728,-0.579895,0.019287,1.104248,-7.058105,-0.201874,-12.418976,1,1,1,1,1,85.000000
2024-12-18 12:40:22.122,0.7481024186576736,0.7524574290959518,1.099382928912173,1.462181700725856,0.3976061185662014,0.5618555238006041,1.020338326552467,1.170038379445039,0.8427304231002513,0.6799028408971504,0.4457062865711315,1.042418930069696,0.7253003758627802,0.6436355901652945,0.76183014232519,1.180698609529555,0.4455311377050741,0.4803432710782053,0.4430027585913153,0.704085444871734,790.1465201465202,799.8168498168499,802.2344322344322,777.2527472527473,57.21611721611722,12.08791208791209,-0.597107,0.013977,0.898254,-3.147736,-1.555176,5.390778,1,1,1,1,1,85.000000
2024-12-18 12:40:22.617,0.7534909641175068,0.6998587651565251,1.114925987695125,1.252983023068612,0.6035652794320886,0.4505658784128793,0.8965806202573515,1.035577752081103,1.031992381183869,0.6454451093612563,0.5143063935112403,1.070002694515831,0.8840534701561378,0.5417194483784308,0.6154605935530068,1.128466662420337,0.9815043457311585,0.3418854563665156,0.3895337742237222,0.7331548302404108,787.7289377289378,804.6520146520147,786.9230769230769,846.1538461538462,47.14285714285715,11.28205128205128,-0.446899,-0.033142,0.786316,-0.067291,0.942078,-3.013153,1,1,1,1,1,85.000000
2024-12-18 12:40:23.125,0.8262252201185899,0.6989794277709459,1.168976605928534,0.9710586419225757,0.5802508956945762,0.4279840280801829,0.8726950728510545,0.8527727353400049,1.031992381183869,0.649958272858845,0.518815733315012,1.111956618735578,0.8636932733471203,0.4655240446093617,0.5718578599638106,1.169490374304545,0.8831372480927265,0.2256191364459487,0.3399591236240303,0.7103822468612715,825.2014652014652,805.4578754578755,803.040293040293,810.2930402930403,32.23443223443223,0,-0.400696,0.029114,0.781128,11.723633,-1.600037,-8.583374,1,1,1,1,1,85.000000
2024-12-18 12:40:23.630,0.7687183154004695,0.7337215508975875,1.250504674105556,1.019375929850528,0.6738566836023717,0.5447737314960336,0.920593674784016,0.9136867942121988,0.8010590819827997,0.4451249724877197,1.016763577934617,1.174204896114536,1.062847376224529,0.3526246460131595,0.4916927173203648,1.248296718578722,0.9122472593016234,0.2798139119618686,0.2537509474889605,0.7632091282900624,808.6813186813187,794.5787545787546,783.2967032967033,779.6703296703297,336.043956043956,82.6007326007326,-0.345520,-0.004333,0.852661,9.301147,9.263763,-19.073334,1,1,1,1,1,85.000000
2024-12-18 12:40:24.117,0.8458560864814463,0.8715972154738334,1.213952496967712,1.005890283814267,0.7677245191691661,0.6382363486140276,1.001281113597841,0.9572515634118934,0.7596383149893516,0.4254557932364437,1.01250842660207,1.326837838999881,1.145454582112732,0.322717389861538,0.5088282927435628,1.320158028260716,0.9195517209254727,0.3131865284596658,0.2639175012384872,0.8613025882178398,815.934065934066,815.934065934066,798.6080586080586,791.3553113553114,1490.842490842491,1622.197802197802,-0.478455,-0.030212,0.897156,12.344208,0.702820,-24.434204,1,1,1,1,1,85.000000
2024-12-18 12:40:24.617,0.858836920874294,0.896170186503802,1.057546336260371,0.9792426840225972,0.7952638869301556,0.7384790493876269,0.9317203117944082,0.9768329008155305,0.8448837130865067,0.4166414563903511,1.012518171043191,1.341974585829389,1.253389806328726,0.3907706078978093,0.5407551547760265,1.319932788912099,0.9934034967691084,0.4549428617682634,0.2797139897860313,0.8920673058350835,815.5311355311355,814.3223443223443,827.2161172161173,813.919413919414,673.6996336996338,540.7326007326008,-0.461792,-0.033386,0.963074,4.770203,9.256287,-33.264313,1,1,1,1,1,85.000000
2024-12-18 12:40:25.120,0.8132974039539764,0.9269220410490151,0.9493264841945851,0.9567773047229685,0.4888926761821541,0.5249295413315297,0.772052106845604,0.9442626163574642,0.9085428310342437,0.441951584471358,0.8951181770677247,1.323832989205092,1.039268277285455,0.3484556873062571,0.4592978395941203,1.245382568655971,0.9071745144161762,0.3190684129153068,0.3569009943149316,0.9012636834350342,793.7728937728938,801.8315018315019,795.7875457875458,808.2783882783883,63.26007326007326,12.08791208791209,-0.369995,-0.013306,0.911987,16.755524,-7.529144,-27.955780,1,1,1,1,1,85.000000
2024-12-18 12:40:25.617,0.8132974039539764,0.9299729171975378,1.069082368450249,1.022520348606362,0.4888926761821541,0.5383332139859991,0.6198637019517356,0.8757096861264191,0.9085428310342437,0.5329261849468665,0.6876620041406128,1.280097104333842,1.039268277285455,0.3098339636080344,0.4700431708674198,1.170996317395743,0.9071745144161762,0.3058571150965981,0.322262063913095,0.8111257553828127,844.5421245421246,805.8608058608058,820.3663003663004,885.6410256410256,857.8388278388279,1181.391941391941,-0.456543,0.030334,0.828308,9.570312,6.317902,-14.497528,1,1,1,1,1,85.000000
2024-12-18 12:40:25.731,,,,,,,,,,,,,,,,,,,,,,,,,,,,,,,,,,,,,,,/muse/elements/blink
2024-12-18 12:40:26.121,0.6785915954922325,0.8743141071081314,1.139749659308034,1.114982111250833,0.3817967599185462,0.633146639968942,0.6234350047329534,0.8974463251979425,0.9085428310342437,0.5936488183166464,0.6618392108328061,1.225470349211453,0.9563966050736709,0.4486220838341968,0.4723056105314813,1.02835242608187,0.9424770509839968,0.3269688500531786,0.3118931364411643,0.7767753362293681,812.7106227106227,809.8901098901099,806.6666666666667,825.6043956043957,417.4358974358975,0,-0.429321,0.108948,0.909058,-2.190704,0.291595,6.101074,1,1,1,1,1,85.000000
