TimeStamp,Delta_TP9,Delta_AF7,Delta_AF8,Delta_TP10,Theta_TP9,Theta_AF7,Theta_AF8,Theta_TP10,Alpha_TP9,Alpha_AF7,Alpha_AF8,Alpha_TP10,Beta_TP9,Beta_AF7,Beta_AF8,Beta_TP10,Gamma_TP9,Gamma_AF7,Gamma_AF8,Gamma_TP10,RAW_TP9,RAW_AF7,RAW_AF8,RAW_TP10,AUX_RIGHT,AUX_LEFT,Accelerometer_X,Accelerometer_Y,Accelerometer_Z,Gyro_X,Gyro_Y,Gyro_Z,HeadBandOn,HSI_TP9,HSI_AF7,HSI_AF8,HSI_TP10,Battery,Elements
2024-12-18 12:44:27.062,,,,,,,,,,,,,,,,,,,,,,,,,,,,,,,,,,,,,,,/muse/event/connected MuseS-9CF6
2024-12-18 12:44:27.361,,,,,,,,,,,,,,,,,,,,,,,,,,,,,,,,,,,,,,,/muse/elements/blink
2024-12-18 12:44:27.563,0.7823932416764872,-0.1819649196129045,0.09945150355829796,0.9957277074417359,0.7639553306837525,0.04487689311635832,0.1175776186350817,0.7591779846982882,0.6602341564714833,0.2287830421460074,0.3642481587947488,1.12400209797483,0.7019800086985125,0.6088431314701326,0.7230623747918564,0.967188551109727,0.7367651829084959,0.5165605020317379,0.4391676878692761,0.628590648967729,807.4725274725275,798.6080586080586,794.1758241758242,798.6080586080586,875.1648351648352,751.8681318681319,-0.551880,0.013794,0.831543,0.373840,0.927124,-0.471039,1,1,1,1,1,84.000000
2024-12-18 12:44:28.072,0.9683339633422715,-0.04941000736906153,0.3746076127873994,1.319560095412076,0.9695500020220975,0.03678081191718514,0.2184577475584141,1.041314452148642,0.6552843766376454,0.1464546272719333,0.3830038910076088,1.135283968668008,0.6893193923233207,0.6358123634570775,0.7425290480142562,0.9476593976455343,0.8124472391188223,0.5101602541764584,0.4712721228005786,0.6221143856288295,803.8461538461539,806.6666666666667,817.5457875457876,829.2307692307693,785.3113553113553,630.989010989011,-0.552612,0.004150,0.826416,2.527161,-0.351410,-2.444916,1,1,1,1,1,84.000000
2024-12-18 12:44:28.565,1.154926510421719,-0.001570763338438281,0.4470216147215041,1.392768632586301,0.8692992376377087,-0.1205446356003057,0.2849189481436507,1.079159588781707,0.5286194784757785,0.3265131385220847,0.4582420935049811,1.18705073131251,0.9086015500199019,0.5419249942583599,0.671712455728623,0.9338514701786962,0.6991301393549343,0.3883363662056363,0.5103670761736201,0.6813471813668669,794.981684981685,806.6666666666667,811.0989010989011,801.8315018315019,862.2710622710623,740.5860805860806,-0.559753,-0.008179,0.813599,0.882263,-0.082245,-0.620575,1,1,1,1,1,84.000000
2024-12-18 12:44:29.063,0.5593540429593915,0.07448713230086496,0.3368761204475681,1.172709663392903,0.2236975814457786,-0.07244340559919013,0.1748867743331656,0.8206518612617278,0.4802265031787966,0.4348819307172398,0.4626652031101351,1.218521148576847,0.873155600789312,0.4862527371347478,0.5849156794273142,0.9702645156442302,0.6597925462716144,0.3359415020477941,0.6380199774642191,0.7902110182536893,807.4725274725275,796.996336996337,805.8608058608058,804.6520146520147,879.1941391941392,728.0952380952381,-0.561279,0.013977,0.806580,-0.246735,-0.052338,1.278534,1,1,1,1,1,84.000000
2024-12-18 12:44:29.580,0.5023160589532305,0.04616638291897974,0.04465698046022239,0.6189175609277575,0.4010999061113196,-0.08301463780638405,-0.04940985660132995,0.36254744462415,0.7627295548584864,0.4435078935879929,0.4239068404561833,1.030386925829559,0.7642123202968704,0.4971608782651306,0.4708516686791459,0.9434882936551907,0.6446080515447763,0.4226989790679109,0.6995932929062334,0.7959268613138127,806.2637362637363,806.2637362637363,805.0549450549451,798.6080586080586,812.3076923076924,639.8534798534798,-0.553406,0.004395,0.817993,0.007477,-0.463562,-1.009369,1,1,1,1,1,84.000000
2024-12-18 12:44:30.070,0.3792046115891947,0.1331002440663019,0.1101640092862516,0.4430871670581503,0.4592942867650783,0.01731509812244987,-0.1428753414026629,0.3833471860438611,0.7663829641492987,0.473983838912966,0.2848988240014357,0.9888094908346903,0.7014071489020852,0.5432607539532895,0.4428543144777883,0.8857733370536025,0.6222245059044266,0.5004575574669782,0.6749438610061281,0.7521962528357362,737.7655677655678,799.0109890109891,813.919413919414,740.1831501831502,768.7912087912088,806.6666666666667,-0.557678,-0.027222,0.823120,0.897217,-8.448792,-8.628235,1,1,1,1,1,84.000000
2024-12-18 12:44:30.288,,,,,,,,,,,,,,,,,,,,,,,,,,,,,,,,,,,,,,,/muse/elements/blink
2024-12-18 12:44:30.563,0.4494921929545932,0.1834753085431396,0.4019690076193604,0.4047251754769766,0.5587249303412966,-0.02757319270352803,-0.08938928965922291,0.4962435265131375,0.758234434549125,0.3268193289942062,0.4398609333403028,0.7931643624481325,0.5966268036747613,0.6869059339926074,0.5447142523351054,0.8165371508554727,0.6082530254364242,0.6084022304034298,0.5605278195104706,0.6821942689672752,790.5494505494506,794.5787545787546,809.8901098901099,785.7142857142858,822.3809523809524,651.5384615384615,-0.520630,0.068176,0.869202,-1.577606,-2.826233,6.811371,1,1,1,1,1,84.000000
2024-12-18 12:44:31.067,0.5920182412556316,0.3731113031960424,0.5570153988101033,0.4663968616510046,0.6856102711201143,0.07627574413086674,-0.008427882972523027,0.6351067359092977,0.7517018887438038,0.205103100514172,0.4399719285436565,0.7545741559174688,0.6551188595867582,0.7479195129444814,0.6941861804936578,0.7639251043127284,0.6505341448220621,0.6071438520887901,0.5324667212707118,0.6833958411281087,783.6996336996338,795.7875457875458,779.6703296703297,778.8644688644689,1001.684981684982,1212.417582417582,-0.548767,-0.008423,0.911438,-5.166473,-2.392578,1.495361,1,1,1,1,1,84.000000
2024-12-18 12:44:31.490,,,,,,,,,,,,,,,,,,,,,,,,,,,,,,,,,,,,,,,/muse/elements/blink
2024-12-18 12:44:31.569,0.5699568125133917,0.3450768199049948,0.5007680667366547,0.3669477954672458,0.6088914922380869,-0.01961773674035247,0.06367657671237024,0.5847500177905885,0.695842216696686,0.1611282318795562,0.4619871141503649,0.6988216186694364,0.6818906390120676,0.7598791846577579,0.7738680188934944,0.7355314559627718,0.6375309510450738,0.6021363308236506,0.61394679295937,0.680884634841101,823.1868131868132,796.996336996337,797.3992673992674,812.3076923076924,957.3626373626374,830.8424908424909,-0.752014,-0.026855,1.008789,-2.415009,-0.261688,1.914062,1,1,1,1,1,84.000000
2024-12-18 12:44:32.065,0.5699568125133917,0.4248934126235398,0.4019329434131456,0.3669477954672458,0.6088914922380869,0.1855375890310645,0.2196277608355219,0.5847500177905885,0.695842216696686,0.4867989157337049,0.3472486743742312,0.6988216186694364,0.6818906390120676,0.7949265591418362,0.7919244306881441,0.7355314559627718,0.6375309510450738,0.4431515754944368,0.6085200741889273,0.680884634841101,866.3003663003664,780.4761904761905,795.7875457875458,876.7765567765568,519.3772893772893,41.90476190476191,-0.526184,0.020874,0.768799,-3.760834,-2.826233,3.028107,1,1,1,1,1,84.000000
2024-12-18 12:44:32.104,,,,,,,,,,,,,,,,,,,,,,,,,,,,,,,,,,,,,,,/muse/elements/blink
2024-12-18 12:44:32.563,0.5699568125133917,0.8639489899288328,0.3481314243597745,0.3669477954672458,0.6088914922380869,0.603914229345868,0.3715501113143483,0.5847500177905885,0.695842216696686,0.6863352027887811,0.3185272734108717,0.6988216186694364,0.6818906390120676,0.7265764766002893,0.7652487059226883,0.7355314559627718,0.6375309510450738,0.4801836380539394,0.49519468385387,0.680884634841101,799.4139194139194,806.6666666666667,799.0109890109891,810.6959706959707,766.7765567765568,526.6300366300367,-0.521362,-0.022156,0.728455,0.583191,3.215027,0.942078,1,1,1,1,1,84.000000
2024-12-18 12:44:33.075,0.5699568125133917,1.016800366796671,0.4371708679147238,0.3669477954672458,0.6088914922380869,0.7144390321551286,0.4521537605517273,0.5847500177905885,0.695842216696686,0.6784099769934598,0.4339432101666036,0.6988216186694364,0.6818906390120676,0.7353090375465657,0.7227457126894324,0.7355314559627718,0.6375309510450738,0.5399337640930308,0.3989501613266088,0.680884634841101,796.5934065934066,792.1611721611722,804.6520146520147,796.5934065934066,817.5457875457876,575.7875457875458,-0.490173,-0.000671,0.679016,-3.185120,-1.375732,-0.904694,1,2,1,1,2,84.000000
2024-12-18 12:44:33.571,0.5699568125133917,1.004351804380729,0.4646490103536665,0.3669477954672458,0.6088914922380869,0.680572769437148,0.5983133701414921,0.5847500177905885,0.695842216696686,0.6015554625574152,0.675688910474864,0.6988216186694364,0.6818906390120676,0.5987504516198723,0.6299631531274225,0.7355314559627718,0.6375309510450738,0.5854682934767518,0.3624618820562658,0.680884634841101,782.0879120879121,794.1758241758242,801.8315018315019,803.8461538461539,869.5238095238095,836.4835164835165,-0.427551,-0.038879,0.674316,4.134674,-8.703003,0.299072,1,2,1,1,2,84.000000
2024-12-18 12:44:34.080,0.365174585112179,0.5426129515070536,0.4132469548131245,0.2824326110747895,0.5677025143601315,0.2758504957166916,0.5793787699858093,0.6194216840790981,0.6734818558368297,0.4646641376936094,0.6703900331182704,1.208178587545836,0.8242605501989602,0.6308790186328809,0.536902155367417,1.056782632814093,0.5370942729919788,0.5340609641839202,0.3358015716690188,0.5696094274119624,802.2344322344322,791.3553113553114,786.1172161172161,813.1135531135532,973.0769230769231,922.7106227106227,-0.498474,0.041077,0.778198,2.370148,-1.405640,-5.323486,1,1,1,1,1,84.000000
2024-12-18 12:44:34.563,0.335145978799363,0.1031909004774414,0.3474624858982576,0.2231118307874057,0.6807128419293648,0.2282682943116586,0.5506390439433601,0.6218053203741906,1.081132433570984,0.5169237158384224,0.6793080364838008,1.22058164956682,0.9820637196407819,0.6577989649386967,0.4324671770115253,0.9954273409041969,0.5596410465740796,0.4396598507753425,0.3046738275057119,0.6501630375941854,798.2051282051282,795.7875457875458,797.8021978021978,807.0695970695971,1116.117216117216,1321.611721611722,-0.496338,-0.116638,0.734009,-4.441223,2.489777,-1.450500,1,1,1,1,1,84.000000
2024-12-18 12:44:35.063,0.2693817875057828,0.2451758087780022,0.3965654495957008,0.2928878040365753,0.6484535126850569,0.3496062101995931,0.3955196534347019,0.5759357509795417,1.081132433570984,0.4374069591210308,0.5651743064170298,0.8398256534484969,0.9695402473372061,0.61442322157011,0.4724883508401868,0.906033886113037,0.6302632375943011,0.3418177279167163,0.2329839068176319,0.7053112712096326,803.4432234432235,803.040293040293,806.2637362637363,797.8021978021978,831.2454212454213,816.3369963369963,-0.608643,-0.042542,0.894836,-0.396271,-4.456177,-6.609497,1,1,1,1,1,84.000000
2024-12-18 12:44:35.581,0.3875601016039494,0.5623387174252613,0.7043639591421813,0.3537391977723076,0.5813439397300202,0.4801953582973735,0.3834922010152894,0.4881794430263724,1.081132433570984,0.4571209550505448,0.5276749946314012,0.7430447258016084,0.9178033097214876,0.574511712110197,0.4644246465179088,0.8225562774015379,0.6507316316164687,0.2593629552999204,0.233904807157422,0.7372048008413181,796.996336996337,778.4615384615385,788.9377289377289,807.0695970695971,724.0659340659341,808.2783882783883,-0.760254,-0.103760,0.921570,-0.074768,10.938568,5.772095,1,1,1,1,1,84.000000
2024-12-18 12:44:36.071,0.6082460693372811,0.7839037960717753,0.7518033404701229,0.5772964968669011,0.5441148750848562,0.5417019409725232,0.5284069846401656,0.4313814719567812,0.9387005329989564,0.4766184546054861,0.5216152307378029,0.7335637365787625,0.7539752000276392,0.4978878980751194,0.5020576906190729,0.8229221517474214,0.5808446770384025,0.2012403729367777,0.2138601869940103,0.7327241151970308,791.7582417582418,787.3260073260074,780.8791208791209,778.8644688644689,784.9084249084249,755.8974358974359,-0.714355,-0.068176,1.105225,1.839294,-4.785156,-0.142059,1,1,1,1,1,84.000000
2024-12-18 12:44:36.569,0.6385464744062718,0.7370127081425252,0.795629486408329,0.6584620101524489,0.5215604236231726,0.4959537051573977,0.5924852410634152,0.4881839778206259,0.7909961179018069,0.3869484546273863,0.5400503528318047,0.7335637365787625,0.6583564400792247,0.4273105052206042,0.4732523900429486,0.7974654604477893,0.5103049278846463,0.2241135582995827,0.2322974598226699,0.7144174123750994,836.8864468864469,807.4725274725275,799.4139194139194,840.5128205128206,595.5311355311355,149.8901098901099,-0.669067,-0.038513,0.836487,-4.351501,1.106567,0.456085,1,1,1,1,1,84.000000
2024-12-18 12:44:36.603,,,,,,,,,,,,,,,,,,,,,,,,,,,,,,,,,,,,,,,/muse/elements/blink
2024-12-18 12:44:37.062,0.7262283099720573,0.4654818535897191,0.6655829617897311,0.7146794992119944,0.5935197532528309,0.2534015678982663,0.6734153007210865,0.5227182252105337,0.7330535628128827,0.4400220330399363,0.4821795735830428,0.4861080143502898,0.7034865674259041,0.528523293176275,0.6125027344027373,0.7907260355399143,0.3717440609573287,0.3609027013331707,0.2607503249008502,0.7146673996610154,808.2783882783883,790.5494505494506,788.5347985347986,773.6263736263736,462.967032967033,91.06227106227107,-0.512329,-0.022827,0.739319,-2.743988,-2.168274,2.362671,1,1,1,1,1,84.000000
2024-12-18 12:44:37.564,0.3811336950935498,0.06502197543105134,0.6733265647699679,0.7169396555291647,0.08306126864801017,0.05745151054605594,0.6842811311974712,0.667322416436086,0.4895847140494654,0.2442117926395015,0.5430381656415512,0.3117802462205358,0.5544036065051626,0.5556562113982568,0.6431967056692846,0.6442256443083084,0.465224709550959,0.4453054996682465,0.2035015771422899,0.7197379175912844,786.1172161172161,796.996336996337,800.6227106227107,776.0439560439561,534.2857142857143,208.3150183150183,-0.504150,-0.017273,0.701233,-0.942078,10.557251,-2.998199,1,1,1,1,1,84.000000
2024-12-18 12:44:38.063,0.5441181549727289,0.04016738933453937,0.5627273211231514,0.7542192434237682,-0.1743065291684032,0.05771262644455212,0.6561506134780125,0.4548715292988438,0.3687163127566655,0.4146730658204255,0.6747388558037148,0.4371607029571748,0.700343229070406,0.6106452436329967,0.8093948447044383,0.8376935766421236,0.2491432957188134,0.533636260703263,0.3068333077957314,0.3801873235853864,803.4432234432235,809.0842490842491,786.9230769230769,796.996336996337,766.3736263736264,519.3772893772893,-0.500671,-0.001648,0.698608,0.986938,-6.160889,14.235840,1,1,1,1,1,84.000000
2024-12-18 12:44:38.564,0.6250032482544177,0.03531280574534214,0.3650841993488269,1.026071526184916,-0.1176257928010045,-0.06371109706496268,0.5411834716455359,0.2841648847506396,0.3897760190654422,0.399868300821808,0.6700144820080621,0.5419475924054233,0.7044730729768706,0.5199285910752769,0.7717075342563796,0.9085951944796167,0.2223641088238439,0.5112505552964094,0.3001286252713179,0.3782230225055261,796.1904761904763,790.1465201465202,809.0842490842491,801.8315018315019,845.7509157509157,598.3516483516484,-0.490540,0.010132,0.695557,-11.132965,-2.579498,-0.149536,1,1,1,1,1,84.000000
2024-12-18 12:44:39.063,0.825505774932707,0.1133796790888765,0.3572464213182189,1.026071526184916,0.7218109652386062,0.1446309872027109,0.4394917002792624,0.2841648847506396,0.8577272155896805,0.4099551794364767,0.7270191666957425,0.5419475924054233,0.776232182126244,0.6090415115548615,0.8212185575678292,0.9085951944796167,0.3036063277792364,0.5464702772689175,0.3651305635606675,0.3782230225055261,788.9377289377289,786.5201465201466,788.5347985347986,784.1025641025641,1197.912087912088,1468.681318681319,-0.515869,-0.119446,0.734924,-5.502930,-4.037476,-2.100983,1,1,1,1,1,84.000000
2024-12-18 12:44:39.545,,,,,,,,,,,,,,,,,,,,,,,,,,,,,,,,,,,,,,,/muse/elements/blink
2024-12-18 12:44:39.562,0.9551297675208993,0.2296398875212684,0.4775195109360482,1.195089411864727,0.9471247631520771,0.2157313217805659,0.5560773902293168,-0.0433064749285258,0.8570503101494101,0.436907653817957,0.5796176331841629,0.5200772075245067,0.8229993665010913,0.6259903783736632,0.7028216660945217,0.9582633382235101,0.3355117122301682,0.5330366980524212,0.3453922287020448,0.365141679082894,804.6520146520147,789.3406593406594,792.1611721611722,811.5018315018315,1225.714285714286,1464.249084249084,-0.575745,0.050110,0.940613,5.413208,-10.220795,-1.697235,1,1,1,1,1,84.000000
2024-12-18 12:44:40.072,0.9778225788107111,0.6556033159243522,0.7381149659279679,1.195089411864727,1.032744279323008,0.5647085157475762,0.6980768711152222,-0.0433064749285258,0.8570503101494101,0.5076015261173122,0.5923001570846858,0.5200772075245067,0.8452244492887688,0.6979020682169905,0.6721563883871972,0.9582633382235101,0.379405839426068,0.6138994102286655,0.3860057673465614,0.365141679082894,755.8974358974359,814.3223443223443,811.5018315018315,742.6007326007326,1180.989010989011,1551.282051282051,-0.511414,-0.054993,0.859985,-5.742188,-6.572113,0.822449,1,1,1,1,1,84.000000
2024-12-18 12:44:40.249,,,,,,,,,,,,,,,,,,,,,,,,,,,,,,,,,,,,,,,/muse/elements/blink
2024-12-18 12:44:40.562,0.9778225788107111,0.7078528707553621,0.7346716782306711,1.195089411864727,1.032744279323008,0.5981785250848597,0.8436613000783556,-0.0433064749285258,0.8570503101494101,0.5197610981855213,0.4104864181864352,0.5200772075245067,0.8452244492887688,0.6187597342928424,0.5761019694481356,0.9582633382235101,0.379405839426068,0.5051879466017768,0.3738459223555042,0.365141679082894,815.5311355311355,790.1465201465202,805.8608058608058,808.6813186813187,752.2710622710623,545.9706959706959,-0.629395,-0.027893,0.962524,-0.844879,10.131073,-3.491669,1,1,1,1,1,84.000000
2024-12-18 12:44:41.063,0.9778225788107111,0.7456835203864804,0.7523780729936744,1.195089411864727,1.032744279323008,0.6241343272666973,0.8132977547034127,-0.0433064749285258,0.8570503101494101,0.5530924525764253,0.3799694925460056,0.5200772075245067,0.8452244492887688,0.6116858836344022,0.5670184433440658,0.9582633382235101,0.379405839426068,0.4552691845727099,0.2978525354013739,0.365141679082894,788.9377289377289,780.0732600732601,783.2967032967033,775.2380952380953,729.7069597069598,645.0915750915751,-0.827393,-0.049500,1.113525,-4.590759,7.551575,2.968292,1,1,1,1,1,84.000000
2024-12-18 12:44:41.563,0.9778225788107111,0.5068782701955996,0.546459109684012,1.195089411864727,1.032744279323008,0.4593035247274335,0.7780030754448485,-0.0433064749285258,0.8570503101494101,0.5753222790393396,0.2960332621178248,0.5200772075245067,0.8452244492887688,0.5814977788675872,0.5548945403549506,0.9582633382235101,0.379405839426068,0.4184898895741866,0.2994625169975249,0.365141679082894,808.2783882783883,810.6959706959707,796.996336996337,807.4725274725275,718.4249084249085,645.4945054945055,-0.623535,-0.041443,0.851868,-0.829926,-3.775787,-0.456085,1,1,1,1,1,84.000000
2024-12-18 12:44:42.072,0.3748048336274823,0.2731049204413924,0.4226197799691053,0.6091959235120883,-0.1019670894247869,0.2274732673253112,0.585983023305614,0.8623043333941279,0.7576658460104364,0.5353180798667526,0.4645008205752049,1.192401446976236,0.907791466817729,0.4842743763500721,0.5560592345501131,1.379937693602741,0.3741690608501538,0.420481158753832,0.2869400692580001,0.7567021837080002,800.2197802197802,791.3553113553114,811.5018315018315,804.2490842490843,585.4578754578755,261.9047619047619,-0.620178,-0.005066,0.765564,-0.254211,-3.745880,2.235565,1,1,1,1,1,84.000000
2024-12-18 12:44:42.563,0.3649363634603521,0.1139453282307134,0.2677366658901121,0.637028979137288,-0.1083635161812655,0.04751686338642463,0.4263883041685142,0.7824305332163797,0.7899846548207611,0.4448892131391005,0.4588175737278707,1.192401446976236,0.9108487898281019,0.4446799937181234,0.5214188306149188,1.278126515294375,0.4008998885029912,0.3963720790017644,0.3089408865803531,0.6892611725946215,800.2197802197802,802.6373626373627,796.5934065934066,797.8021978021978,263.919413919414,0,-0.497498,-0.050781,0.679932,0.919647,-2.295380,4.755249,1,1,1,1,1,84.000000
2024-12-18 12:44:42.862,,,,,,,,,,,,,,,,,,,,,,,,,,,,,,,,,,,,,,,/muse/elements/blink
2024-12-18 12:44:43.065,0.388799499548952,0.07131782309375002,0.6531689435869311,0.7281349477562464,-0.1283297361146411,0.04438516583314186,0.5443011091801918,0.6964482843432539,0.7660516831299216,0.3730542171358335,0.4676853038420106,1.1329317707782,0.922347260938728,0.3972491411144602,0.4876237121221761,1.161041930488635,0.4208283702230704,0.2509526816252927,0.1536708012933791,0.5836824438495435,794.981684981685,799.0109890109891,795.7875457875458,789.3406593406594,254.2490842490843,2.014652014652015,-0.469666,-0.013184,0.731323,-4.493561,-6.370239,-1.547699,1,1,1,1,1,84.000000
2024-12-18 12:44:43.563,0.3281047476324629,0.2492537312058408,0.8247480202492594,0.6920048835629626,-0.1022777317576035,0.1938613952006876,0.6862322943429536,0.5794321514057311,0.7282986778712776,0.4795152124522069,0.5079650291231854,0.669638770377338,0.9227412103777739,0.4630273171784562,0.4104479114785497,0.901879262391454,0.4271750096949183,0.1731618452158394,0.1273025548738932,0.4974707616045155,793.3699633699634,803.8461538461539,804.6520146520147,801.025641025641,794.1758241758242,430.3296703296704,-0.516418,-0.079712,0.727783,5.233765,-0.351410,10.661926,1,1,1,1,1,84.000000
2024-12-18 12:44:44.063,0.2811181341844012,0.2647754270284852,0.9035017822370863,0.7195368047656705,0.007001212522652145,0.4659804064710637,0.9122486621246353,0.5658936450707704,0.6212642834633165,0.5412473060829227,0.7910590442019106,0.4740842884281812,0.865046781658386,0.4591378748449632,0.3271724502981008,0.9125373509053051,0.3465890019828691,0.1569778635574576,0.1294730106640228,0.4655993349905699,783.2967032967033,795.7875457875458,788.5347985347986,793.3699633699634,882.014652014652,625.7509157509157,-0.472778,-0.005127,0.647461,-3.955231,-6.557159,-7.177734,1,1,1,1,1,84.000000
2024-12-18 12:44:44.572,0.7547926379464963,0.2343555409693953,0.9278324926768488,1.161737878738227,0.6731837834985124,0.4701558157342951,0.9986697510901356,1.082181193513593,1.158090133240483,0.5412473060829227,0.8677947459273435,1.368067553147248,0.812108902840833,0.4772403739050428,0.3635940829756177,0.8621845413738245,0.3867094305249386,0.131755716030311,0.2250594372803399,0.6239119275342193,793.3699633699634,792.1611721611722,782.893772893773,779.2673992673992,759.92673992674,510.9157509157509,-0.439880,-0.098206,0.661621,-5.353394,-11.581573,-6.437531,1,1,1,1,1,84.000000
2024-12-18 12:44:45.063,0.829678291070337,-0.007463083373675709,0.9502896980397572,1.223509472376121,0.6791676989889898,0.4838182101129223,1.082670821784124,0.9582140931586076,1.273436254349164,0.6141435863534832,0.9478484946380732,1.387852142450427,0.9123310644623451,0.3819479972321347,0.479527811651503,0.8595772569542919,0.4945481966707763,0.2624555494689411,0.2505882074347938,0.5856892205905464,809.4871794871796,790.5494505494506,799.0109890109891,794.1758241758242,1296.630036630037,1475.934065934066,-0.486633,-0.021790,0.685303,1.929016,-8.015137,-1.480408,1,1,1,1,1,84.000000
2024-12-18 12:44:45.563,0.7337703853947529,0.01122827444439101,0.9794180208820279,1.129814425425666,0.5721709492549889,0.3160809896130036,1.102632985967529,0.9045853248721383,1.273436254349164,0.5788383829657049,0.9252539715905163,1.387852142450427,0.842829946866528,0.417036954171576,0.5980528791613815,0.8207524485183733,0.4716771670305073,0.358831104492271,0.2995847750867601,0.5333215780003782,790.5494505494506,792.1611721611722,802.6373626373627,795.3846153846154,1545.238095238095,1622.600732600733,-0.481750,-0.056030,0.756958,-2.684174,-4.867401,-0.515900,1,1,1,1,1,84.000000
2024-12-18 12:44:46.063,0.5558257499605065,0.04241419531903444,0.8917894181312682,1.035481565487298,0.3993605649018568,0.3312867914986257,1.056130953497539,0.7648879137633492,1.200142131046331,0.5643937480566751,0.8058362869006392,1.297573874657676,0.8314975581889847,0.4327221995023994,0.6933786536243329,0.7625549543241319,0.4591986967403952,0.401446262145208,0.3400239895847147,0.4982986036884292,807.0695970695971,813.919413919414,817.5457875457876,803.8461538461539,1338.534798534798,1624.615384615385,-0.603943,-0.075317,0.902405,-2.220612,-5.241241,-0.964508,1,1,1,1,1,84.000000
2024-12-18 12:44:46.571,0.02093762375377827,0.2326996852248001,0.7407453589735862,0.690120403845045,0.1535484345745108,0.3556173152991106,0.9083669348311839,0.7459344254669442,0.5740260998136723,0.2553638676442411,0.3698228056047616,0.7527708070632965,0.6590430139563492,0.5051823145167851,0.6198832086163208,0.6217723857129592,0.2952986109174245,0.3561731099558896,0.3266081066534216,0.4037749885454442,812.7106227106227,798.2051282051282,817.1428571428571,811.0989010989011,1621.794871794872,1622.197802197802,-0.600708,-0.144409,0.950623,-3.693542,-1.203766,-1.540222,1,1,1,1,1,84.000000
2024-12-18 12:44:47.066,-0.197682542414768,0.224613035391915,0.6463685909800911,0.6388369664562789,0.1391364713537737,0.3803409127057998,0.8342360842563366,0.7393899076351089,0.5000425458954726,0.2470931668429451,0.13759601825217,0.7832172210400368,0.6020896825028241,0.4516591290462544,0.5263693397403214,0.4828587676190912,0.2433929325388985,0.3354771565400446,0.2552966823996715,0.3529399014910607,826.8131868131868,809.4871794871796,797.8021978021978,794.5787545787546,1045.604395604396,1100,-0.561584,-0.059753,0.844055,1.024323,-0.628052,-4.224396,1,1,1,1,1,84.000000
2024-12-18 12:44:47.563,0.03610601467047928,0.3190460392346131,0.7832695045351213,0.7431539817452477,0.2264483447196134,0.389242339565069,0.8375034089762854,0.8013458290376894,0.6134420663834035,0.1289299628108957,0.1603497630168802,0.792200878425365,0.5749207671276726,0.4792114898778682,0.3239963493109395,0.5123327193597917,0.3683453153062998,0.3887611933138839,0.1966820554821754,0.3079370499210711,809.8901098901099,786.9230769230769,821.1721611721612,800.6227106227107,1002.893772893773,1045.201465201465,-0.666077,-0.057312,0.971436,0.157013,-0.209351,1.390686,1,1,1,1,1,84.000000
2024-12-18 12:44:48.063,0.4491990787053304,0.2356100588128176,0.8244489339064847,0.8143236986769992,0.3347528258468906,0.4010172501173042,0.9355932523748746,0.8844648558136624,0.7602234939486715,0.3316251438865828,0.4319382322348662,0.8072957339971371,0.7309468998691852,0.533143519252061,0.3207806151847361,0.565034908827923,0.6495381232572847,0.4595718758691084,0.2173251348189514,0.4225879484396288,806.6666666666667,803.040293040293,814.3223443223443,803.4432234432235,967.8388278388279,1179.377289377289,-0.553040,-0.052979,0.821960,1.323395,1.188812,1.196289,1,1,1,1,1,84.000000
2024-12-18 12:44:48.564,0.5144738842948899,0.1873996391964125,0.9280616416549495,0.8518227034818323,0.4487894857904883,0.4000172169791245,0.9873612923365006,0.9919690631800896,0.7744057923973977,0.4797071071088196,0.4955373734194201,0.8079860486355814,0.7686898625018455,0.5818658487315184,0.3705970800596094,0.7678973453440595,0.7294234436777511,0.4049518616237548,0.2699895000941707,0.5098150393815536,814.7252747252747,809.4871794871796,819.1575091575091,808.2783882783883,0,0,-0.545776,-0.011230,0.789673,1.323395,0.770111,0.201874,1,1,1,1,1,84.000000
2024-12-18 12:44:49.063,0.4678352043413559,0.1996734559901527,0.8850866586379438,0.7727788424469691,0.4365455098548249,0.3860404627240461,0.9826292552901787,1.009151631312721,0.7744057923973977,0.4797071071088196,0.5972169363816808,0.9813889293979648,0.708823062772877,0.5595282051554828,0.3916966236459555,0.9013290708421222,0.7000240890962107,0.3323123866126041,0.2370786099492697,0.5451611049679268,791.7582417582418,795.3846153846154,794.1758241758242,790.5494505494506,137.8021978021978,1.611721611721612,-0.485474,-0.006592,0.703186,3.790741,0.366364,2.415009,1,1,1,1,1,84.000000
2024-12-18 12:44:49.563,0.2391436517391255,0.3045368427607102,0.8886427118532501,0.7813758321549883,0.3520284689169532,0.2868578184036441,1.015797746620686,0.9953074024287937,0.7255405009958737,0.4650128459360034,0.7355860048692282,0.9826474862801127,0.5258311999810662,0.5017927606559107,0.445214668775828,0.8708272348202618,0.4958623854806365,0.2393676299080871,0.2952648502543273,0.5575311180605417,797.3992673992674,787.3260073260074,803.4432234432235,797.3992673992674,334.4322344322345,8.461538461538462,-0.445068,-0.021545,0.749634,-1.794434,-8.822632,-9.772186,1,1,1,1,1,84.000000
2024-12-18 12:44:50.063,0.3185395217869091,0.3983630154200474,0.8625713023784453,0.9346083672086445,0.2694030211720487,0.4401809307050779,1.083305637185009,0.9773589202929189,0.5897772119006937,0.322161594735897,0.6715892892058645,0.9826474862801127,0.4578248688336934,0.4721991549222227,0.3547586229620424,0.8151965953344248,0.4631072205908018,0.2953863083456773,0.332002129048483,0.5795446943307893,792.5641025641025,799.0109890109891,788.1318681318681,788.1318681318681,509.7069597069597,47.94871794871795,-0.451782,-0.036987,0.754700,5.981445,-2.048645,7.297363,1,1,1,1,1,84.000000
2024-12-18 12:44:50.563,0.4624641177330034,0.4235313887257036,0.9236430735583175,1.06111011461912,0.2885584271750212,0.5352502557410567,1.162139355627376,0.9770178851771171,0.588763851413626,0.2698734301681813,0.6839027000161235,0.7897613498087386,0.4836412182387386,0.4592812322116927,0.3064486759678071,0.6461346261489868,0.4198872187091435,0.3376495746066512,0.3127243491015563,0.6691586766960002,788.9377289377289,796.5934065934066,805.0549450549451,818.3516483516484,757.5091575091575,550.8058608058608,-0.467773,0.001648,0.789612,1.555176,-23.357544,-7.723541,1,1,1,1,1,84.000000
2024-12-18 12:44:51.062,0.6253634059273334,0.398187138534355,0.9512618800719264,1.1261478676204,0.3787823207409056,0.5952355797186618,1.184625631940023,1.029812780196295,0.5167378845567128,0.2690456799793298,0.5245822347201413,0.6906958901557231,0.4929161082967278,0.4224352105957002,0.2148833497800829,0.6766728972767698,0.4897672089575815,0.3469154599466196,0.2051652216241374,0.6098598319692055,774.0293040293041,793.7728937728938,798.2051282051282,789.3406593406594,1599.6336996337,1621.794871794872,-0.543701,-0.077881,0.711792,-3.872986,-5.585175,0.224304,1,1,1,1,1,84.000000
2024-12-18 12:44:51.562,0.748396013991956,0.3291298072791871,0.9261617247859646,1.129825583950641,0.4230407319613683,0.4984430483385235,1.126774595160462,1.030380974350588,0.4642212758742221,0.2567332532824479,0.5707787827989925,0.6899982225253037,0.5176082777421196,0.4191357645980091,0.3312056116037778,0.6943851586926731,0.4519722600382266,0.2833392652872925,0.05081205130131726,0.591704417388933,814.7252747252747,808.6813186813187,801.8315018315019,829.6336996336996,1595.201465201465,1622.197802197802,-0.593933,-0.018677,0.848206,4.381409,11.461945,-0.328979,1,1,1,1,1,84.000000
2024-12-18 12:44:52.068,0.8484677535649673,0.4331930761139869,0.8598066615349058,1.145684247494394,0.4641502362329243,0.4109278802957148,1.131120342433254,1.070060011830502,0.3344918634527448,0.2242413772778578,0.7216854912655769,0.8961325261393291,0.5377898614956405,0.4573996030832641,0.4505649049083237,0.6964467351151391,0.5233033485995291,0.2788428463437098,0.1513074453458052,0.392999362136787,773.2234432234433,778.0586080586081,815.1282051282052,794.981684981685,1144.725274725275,1390.512820512821,-0.506653,-0.049255,0.915161,-0.800018,15.207825,-4.164581,1,1,1,1,1,84.000000
2024-12-18 12:44:52.105,,,,,,,,,,,,,,,,,,,,,,,,,,,,,,,,,,,,,,,/muse/elements/blink
2024-12-18 12:44:52.567,1.503263074413872,0.5202515636863366,0.7735278902592482,1.081614100183783,1.539197093421812,0.3957409920779607,1.112328946062357,1.089082757932258,1.284643204669597,0.4548036583948457,0.7145779895108858,0.8961325261393291,1.05131274701962,0.6101297546776419,0.53236120379421,0.7158013237440486,0.7646434194680325,0.4967964822175541,0.2033802321161032,0.4244912927242327,792.1611721611722,801.025641025641,796.996336996337,787.3260073260074,473.8461538461539,89.85347985347985,-0.648315,-0.047119,0.981628,3.215027,8.067474,-6.347809,1,1,1,1,1,84.000000
2024-12-18 12:44:53.063,1.503263074413872,0.5353700667861815,0.780757119467394,1.081614100183783,1.539197093421812,0.3917389360875404,1.189996558512925,1.089082757932258,1.284643204669597,0.5033557750816672,0.6790216509207126,0.8961325261393291,1.05131274701962,0.6820896656919323,0.6139841473426403,0.7158013237440486,0.7646434194680325,0.6239728178011869,0.321666378203521,0.4244912927242327,796.996336996337,793.7728937728938,806.2637362637363,796.5934065934066,669.6703296703297,588.2783882783883,-0.622192,0.051392,0.914795,-2.841187,-2.467346,3.843079,1,1,1,1,1,84.000000
2024-12-18 12:44:53.564,1.330076512042333,0.4692178225456422,0.7580300666476026,0.7713409430301146,1.37072015230736,0.3737202206161925,1.096223884988086,1.099617568301489,1.279015440914643,0.4714703481874253,0.2731389326929594,0.926427059052252,0.905565938113858,0.6632451366762632,0.4934744474563815,0.8300396187628845,0.6488169250478885,0.6152957565769911,0.1988459490110188,0.4043184179345087,802.2344322344322,819.5604395604396,812.7106227106227,802.2344322344322,927.1428571428572,980.3296703296703,-0.609863,-0.057861,0.872070,-1.308441,1.727142,2.519684,1,1,1,1,1,84.000000
2024-12-18 12:44:54.063,0.7180086223397683,0.4675705262938589,0.7920021977119571,0.7713409430301146,0.1606686894252868,0.4388571992300888,1.084810415902971,1.099617568301489,0.4888026482082541,0.4970184956873583,0.3794965319693778,0.926427059052252,0.5364528211925939,0.5844693470062483,0.464388002175137,0.8300396187628845,0.3183159062503269,0.4253107030189692,0.1950150948926147,0.4043184179345087,803.4432234432235,809.0842490842491,800.2197802197802,802.6373626373627,0,0,-0.523682,-0.087280,0.766907,-3.536530,3.364563,1.988831,1,1,1,1,1,84.000000
2024-12-18 12:44:54.562,0.6914901158650585,0.481334344741837,0.6836320605481699,0.6860581527513071,0.119508560595981,0.4530505250590025,1.000092492069927,0.9614163070942403,0.5483147316558304,0.3883371792100651,0.5779028487413532,1.114894040456861,0.5410452032987282,0.5202716659452176,0.4610116690131692,0.7389059491156506,0.3041616880099685,0.2321782648575265,0.1780364266629975,0.5189855821843372,799.0109890109891,804.6520146520147,807.0695970695971,809.0842490842491,231.2820512820513,1.208791208791209,-0.454102,-0.103149,0.724548,1.532745,-0.882263,12.045135,1,1,1,1,1,84.000000
2024-12-18 12:44:55.067,0.5763061904642518,0.3245101860395976,0.8065968653980812,0.8112534202296637,0.04681357527422832,0.4057559525685279,0.8957070332674637,0.8099270843991231,0.9151311631380589,0.5798858173584497,0.6116496430539521,1.08660279490377,0.5477997150927368,0.5126518959406985,0.5037605681228792,0.6683972112132081,0.2802566263570364,0.1909874397485843,0.1280485537895793,0.6869765248807097,796.5934065934066,789.7435897435897,802.6373626373627,808.6813186813187,701.0989010989011,511.3186813186813,-0.460754,-0.013672,0.702332,-3.035583,-4.336548,-7.880554,1,1,1,1,1,84.000000
2024-12-18 12:44:55.569,0.4740337674013509,0.06891129474943188,0.758918353774393,0.7990035741955168,0.06160001145219,0.2657574900986552,0.7433690500640574,0.7912622037237309,0.9168636218023681,0.5904240835161741,0.6089983868625762,1.087232424083501,0.4946574118131033,0.4319001422218227,0.5125013428815055,0.6398294820156469,0.3735393259731977,0.2215295150242628,0.2187848394219581,0.6940424359530879,802.2344322344322,800.2197802197802,794.5787545787546,808.6813186813187,795.3846153846154,447.6556776556777,-0.402649,-0.028259,0.700439,2.818756,-7.237549,4.964600,1,1,1,1,1,84.000000
2024-12-18 12:44:56.062,0.2981284949888073,0.2486863264920203,0.8885613809808245,0.8817733710464883,0.05612993086605766,0.5632277692647796,0.8993059815382145,0.7711243681509887,0.9168636218023681,0.84807839262823,0.5561284834708489,1.060305978349922,0.4698491860239881,0.4037823481903398,0.5053234022168153,0.6461553455029676,0.4080166901371679,0.2508045097594447,0.2590091610470801,0.7420179307942136,811.5018315018315,799.4139194139194,794.5787545787546,807.4725274725275,1299.85347985348,1627.435897435897,-0.537842,0.058777,0.790344,-5.577698,0.800018,-3.065491,1,1,1,1,1,84.000000
2024-12-18 12:44:56.563,0.4133647905647753,0.2696841849139646,0.8802296922691553,0.7422568340710221,0.1504216214788078,0.6654377050924134,0.9587923598492821,0.7651751732243808,0.9124573407606258,0.829344697945572,0.4539026921817793,0.6455131335169372,0.3567830448658824,0.343801432183245,0.4694115183047073,0.5436359437517193,0.5377174195497121,0.2076108588140839,0.2523443474906438,0.6946461761113182,800.6227106227107,797.3992673992674,814.7252747252747,822.7838827838829,1622.197802197802,1622.197802197802,-0.569763,-0.124878,0.925598,3.237457,11.820831,-3.162689,1,1,1,1,1,84.000000
2024-12-18 12:44:57.070,0.2016840368569183,0.262937137574476,0.9067786371016787,0.5291450310774473,0.5597116177260625,0.6900207913718288,1.060796404396434,0.9278751415033307,0.9864180592680193,0.829344697945572,0.4570828459378011,0.7143481012487646,0.7251820775184055,0.35441006123133,0.4103609523317684,0.6443276896077508,0.6907461717800307,0.166026911470315,0.1095640432839679,0.4579518571982453,786.5201465201466,793.7728937728938,807.0695970695971,811.0989010989011,1108.058608058608,1338.534798534798,-0.604309,-0.013550,0.948914,6.990814,-3.207550,0.149536,1,1,1,1,1,84.000000
2024-12-18 12:44:57.564,0.4315349461479473,0.0697624466085391,0.8892310567573174,0.6133041081690526,0.4403471954291017,0.4563688054438467,0.9702442220776334,0.8257546142029701,0.9864180592680193,0.4711644816886363,0.4740405531118119,0.8264482574082793,0.7205887870911756,0.3925686657012682,0.4179141959635169,0.6489771460232437,0.6045579082970318,0.09192613989673133,-0.007088795180808715,0.4139969505175382,790.952380952381,795.3846153846154,793.3699633699634,792.1611721611722,1011.758241758242,1268.021978021978,-0.579346,-0.035950,0.967102,5.390778,-0.456085,1.196289,1,1,1,1,1,84.000000
2024-12-18 12:44:57.903,,,,,,,,,,,,,,,,,,,,,,,,,,,,,,,,,,,,,,,/muse/elements/blink
2024-12-18 12:44:58.074,0.5867701363961433,0.3294687873096572,0.9141022133776034,0.9651568396037083,0.5377823117261292,0.4013499243311895,0.9640798539192382,0.8780686361809378,0.9978875058889973,0.4532213036557227,0.4872515277445352,1.126118405929302,0.7083281258164219,0.3995772267138119,0.3989223291391216,0.789055337659549,0.5777359105327894,0.07315680821596486,0.04059640961076313,0.5116881701102057,792.1611721611722,793.7728937728938,798.2051282051282,803.4432234432235,795.3846153846154,592.3076923076924,-0.693359,-0.076904,0.896484,3.267365,2.400055,0.919647,1,1,1,1,1,84.000000
2024-12-18 12:44:58.563,0.6893433736480399,0.569079423506591,1.099028581310974,1.185622940381889,0.5128710216266128,0.4844540370072186,0.9638844082252906,1.034588818267533,0.7604573495421317,0.589182040183548,0.5712347709544966,1.202304884243968,0.6992698753745153,0.4466810919974016,0.3982959306764554,0.8247996514826617,0.5066572992455272,0.1086198156450191,0.1432584058595448,0.5177524318120428,801.025641025641,799.8168498168499,804.2490842490843,797.3992673992674,0,0,-0.563965,0.001953,0.825562,0.343933,-0.949554,-1.689758,1,1,1,1,1,84.000000
2024-12-18 12:44:58.926,,,,,,,,,,,,,,,,,,,,,,,,,,,,,,,,,,,,,,,/muse/elements/blink
2024-12-18 12:44:59.063,1.15192060738191,0.6072199718945689,1.107271929163469,1.345865332234322,1.000726304761707,0.5274300433596215,1.018601185828363,1.178190003330978,1.018093529715043,0.693344792749652,0.6140649748893652,1.26071584659068,0.7140073135836557,0.4302993880238009,0.4439560517277692,0.9321232194720981,0.6050897341472222,0.1387620831974286,0.2115074389321308,0.6570715999896506,798.6080586080586,802.6373626373627,831.2454212454213,821.1721611721612,329.5970695970696,0.4029304029304029,-0.560120,-0.056702,0.820496,0.792542,2.437439,2.272949,1,1,1,1,1,84.000000
2024-12-18 12:44:59.571,1.754614313534824,0.769503155181363,1.1572806992006,1.474755084180741,1.456261794017243,0.6302861341481479,1.041417726278192,1.395437026315911,1.228664435817021,0.6861859745804894,0.5565840207918328,1.26071584659068,0.7157974054969264,0.4576969693034948,0.4672940609918644,0.8606837848938897,0.7447833154848532,0.2748825050348284,0.2565038537497487,0.6489405130587034,799.0109890109891,797.3992673992674,788.9377289377289,791.7582417582418,0,0,-0.517639,0.009155,0.687683,-1.629944,-4.112244,8.732910,1,1,1,1,1,84.000000
2024-12-18 12:45:00.063,1.754614313534824,0.6309303803819131,0.7160326972579549,1.474755084180741,1.456261794017243,0.5116097151747376,1.036067202509909,1.395437026315911,1.228664435817021,0.5527722670293457,0.5111629956880397,1.26071584659068,0.7157974054969264,0.4323914963558728,0.4571368709762512,0.8606837848938897,0.7447833154848532,0.3027842888907667,0.2170223199089349,0.6489405130587034,797.3992673992674,801.8315018315019,780.8791208791209,790.5494505494506,366.2637362637363,23.36996336996337,-0.489624,0.028076,0.737244,1.248627,-5.345917,5.338440,1,1,1,1,1,84.000000
2024-12-18 12:45:00.562,1.470773538813632,0.5607628845731562,0.69704628771435,0.6868456164955121,1.157065184673292,0.4709383639352204,1.038099360369731,0.7500001042622645,1.217127598054134,0.5697333829128888,0.5611602846115876,0.543844605137873,0.4513065169536484,0.3744861372231673,0.617686187998517,0.597272555103691,0.5062486987359472,0.2349744409355391,0.379508536248757,0.8209469378469785,792.5641025641025,811.0989010989011,806.6666666666667,796.996336996337,488.7545787545787,128.5347985347985,-0.454834,0.000244,0.665894,-5.570221,-4.052429,-9.226379,1,1,1,1,1,84.000000
2024-12-18 12:45:01.063,0.5007302093097784,0.05601622632004077,0.7584138496057873,0.7822189521096561,0.4391554151996533,0.2851251032175819,1.011862811554494,0.7513763968742283,0.7549553113863693,0.4616136038823945,0.7706994421794505,0.6400405118571453,0.4288183415860806,0.4101173253226429,0.6617785759108009,0.7187441469150191,0.4491180775045053,0.2646082336364773,0.3921931602703894,0.784156980341753,800.2197802197802,800.6227106227107,781.2820512820513,802.6373626373627,1446.923076923077,1621.391941391941,-0.484863,-0.069702,0.756165,-6.953430,-7.529144,8.545990,1,1,1,1,1,84.000000
2024-12-18 12:45:01.563,0.4399802762901854,0.06414602251794528,0.7845382674118567,0.7368003800117624,0.4962176351000898,0.4610052620467637,1.019853768299535,0.8598604924654626,0.7549553113863693,0.4897641691082635,0.909941484371823,0.831190428371767,0.4198726957377866,0.4266005874350571,0.6096894322727613,0.8090969291348752,0.4140209895175241,0.312197112229969,0.3312157884013072,0.7631083914531119,790.1465201465202,799.4139194139194,796.996336996337,765.1648351648352,1429.194139194139,1618.571428571429,-0.491455,0.084900,0.749329,2.893524,-9.981537,-5.046844,1,1,1,1,1,84.000000
2024-12-18 12:45:01.843,,,,,,,,,,,,,,,,,,,,,,,,,,,,,,,,,,,,,,,/muse/elements/blink
2024-12-18 12:45:02.063,0.3711352472362771,0.2044344656561321,0.8130041567005936,0.7413057690534729,0.527590529057446,0.5077002528125603,0.9158725131020466,0.8626286818013056,0.7130324151815683,0.4817590278117452,0.911677343807162,0.8755942853359756,0.4510969123682658,0.5368595986678051,0.5508188908919306,0.8435018321529799,0.4612866552779108,0.3785333305165257,0.2424912669831766,0.7431828794659823,789.3406593406594,807.4725274725275,790.1465201465202,803.8461538461539,1622.197802197802,1622.197802197802,-0.542175,-0.000305,0.753784,-8.538513,12.531128,7.342224,1,1,1,1,1,84.000000
2024-12-18 12:45:02.563,0.3129027835230052,0.3310673471593639,0.8344658811699279,0.6576710268222907,0.5953914638286186,0.5903709675743936,0.9959891414524712,0.9307512840830245,0.5489066653215768,0.4998548989831076,0.9665526856286112,0.8755942853359756,0.4058533983170307,0.6093847391701855,0.5505118201893597,0.8518145090803045,0.379497496631627,0.2738439114604715,0.2249227976955893,0.7287089266850224,809.0842490842491,801.4285714285714,811.5018315018315,817.5457875457876,771.6117216117216,807.0695970695971,-0.585999,-0.005432,0.831848,2.474823,2.130890,-5.674896,1,1,1,1,1,84.000000
2024-12-18 12:45:03.062,0.3655609605590201,0.3610159860424975,0.8359090921827551,0.6527979664796424,0.5932562549520409,0.4965297617105269,0.9697154922555219,0.7999429732554185,0.3112135597981049,0.4226158121484492,0.8478676635748904,0.8578104247377527,0.3460120687904591,0.6526782274998914,0.5186821599581548,0.7756622064677771,0.3969119098603052,0.1558249784420875,0.2445265169207816,0.7406575885268177,780.8791208791209,767.5824175824176,764.7619047619048,774.0293040293041,731.3186813186813,644.2857142857143,-0.619202,-0.031799,0.942810,1.218719,3.843079,4.568329,1,1,1,1,1,84.000000
2024-12-18 12:45:03.164,,,,,,,,,,,,,,,,,,,,,,,,,,,,,,,,,,,,,,,/muse/elements/blink
2024-12-18 12:45:03.563,0.3655609605590201,0.4072245922387507,0.8964953090081691,0.6527979664796424,0.5932562549520409,0.5685519561034791,1.081111034982268,0.7999429732554185,0.3112135597981049,0.6029031085008427,0.7931057266370158,0.8578104247377527,0.3460120687904591,0.654033896463508,0.5386500247424912,0.7756622064677771,0.3969119098603052,0.1256768469997263,0.3136565727125548,0.7406575885268177,803.4432234432235,797.8021978021978,802.2344322344322,798.2051282051282,1181.794871794872,1427.582417582418,-0.495056,0.004150,0.788452,4.710388,3.259888,-9.458160,1,1,1,1,1,84.000000
2024-12-18 12:45:03.917,,,,,,,,,,,,,,,,,,,,,,,,,,,,,,,,,,,,,,,/muse/elements/blink
2024-12-18 12:45:04.070,0.3655609605590201,0.49086109207758,0.9435301056527207,0.6527979664796424,0.5932562549520409,0.5965425960517932,1.062622139102707,0.7999429732554185,0.3112135597981049,0.6231196405549984,0.7552858813102878,0.8578104247377527,0.3460120687904591,0.60208588362958,0.4174425055714506,0.7756622064677771,0.3969119098603052,0.175030243588187,0.2392156746596862,0.7406575885268177,802.2344322344322,801.4285714285714,809.0842490842491,790.952380952381,323.5531135531136,91.46520146520147,-0.646545,0.056213,0.916504,-3.379517,-4.844971,7.297363,1,1,1,1,1,84.000000
2024-12-18 12:45:04.562,0.3655609605590201,0.4826360080322309,0.9161928414446099,0.6527979664796424,0.5932562549520409,0.6272704844824583,1.057410664417636,0.7999429732554185,0.3112135597981049,0.6232629773386545,0.788450133816214,0.8578104247377527,0.3460120687904591,0.5068300321159073,0.4902377684412333,0.7756622064677771,0.3969119098603052,0.1744609763178684,0.293108189229613,0.7406575885268177,801.025641025641,797.8021978021978,809.8901098901099,810.2930402930403,290.9157509157509,0,-0.529602,0.017761,0.785767,1.742096,-0.897217,-0.747681,1,2,1,1,2,84.000000
2024-12-18 12:45:04.923,,,,,,,,,,,,,,,,,,,,,,,,,,,,,,,,,,,,,,,/muse/elements/blink
2024-12-18 12:45:05.063,0.3655609605590201,0.3947627091865412,0.9430213817254059,0.6527979664796424,0.5932562549520409,0.5336474350267202,0.9713820091972587,0.7999429732554185,0.3112135597981049,0.6091298806764341,0.8137796037721203,0.8578104247377527,0.3460120687904591,0.4122536741000905,0.4515924644493781,0.7756622064677771,0.3969119098603052,0.2108671999111945,0.2837930923124364,0.7406575885268177,814.7252747252747,795.7875457875458,800.6227106227107,810.2930402930403,631.3919413919414,377.948717948718,-0.470398,0.051270,0.732544,0.321503,-5.562744,-7.327271,1,2,1,1,2,84.000000
2024-12-18 12:45:05.562,0.3655609605590201,0.3261264486351966,0.9725691794127719,0.6527979664796424,0.5932562549520409,0.429814981360731,0.864514645361972,0.7999429732554185,0.3112135597981049,0.4599231996183926,0.7072674656499398,0.8578104247377527,0.3460120687904591,0.3311343423037629,0.443833906368404,0.7756622064677771,0.3969119098603052,0.165338924547726,0.3264921333035591,0.7406575885268177,811.0989010989011,816.3369963369963,801.4285714285714,805.0549450549451,663.2234432234433,630.989010989011,-0.411743,-0.012817,0.750732,6.063690,-3.140259,-3.058014,1,2,1,1,2,84.000000
2024-12-18 12:45:06.062,0.3655609605590201,0.366432470584608,1.02318333614551,0.6527979664796424,0.5932562549520409,0.3634839990206737,0.9112335791300301,0.7999429732554185,0.3112135597981049,0.3859216121230487,0.4446292196804636,0.8578104247377527,0.3460120687904591,0.4128544605979653,0.5214866591758425,0.7756622064677771,0.3969119098603052,0.1817906856359081,0.4068100814067018,0.7406575885268177,813.919413919414,809.0842490842491,797.3992673992674,805.8608058608058,1199.92673992674,1248.278388278388,-0.565186,0.045715,0.726624,-6.198273,-9.645081,0.373840,1,2,1,1,2,84.000000
2024-12-18 12:45:06.563,0.5551961381816825,0.3178613905239908,0.978249344135236,0.5656112876236551,0.5166804148719278,0.3778628037532218,0.930040958277956,0.9868311135610837,0.8941615156302718,0.5069882316765396,0.5182018205824722,0.8931888944368267,0.775868691446457,0.4764863002578795,0.5848293279218441,1.001936650171226,0.3187140623411284,0.2131681599738394,0.4886997925038112,0.434431240301053,796.1904761904763,798.2051282051282,817.5457875457876,806.6666666666667,1622.197802197802,1622.197802197802,-0.425598,-0.101135,0.866699,1.136475,-3.648682,3.611298,1,1,1,1,1,84.000000
2024-12-18 12:45:07.076,0.6790656317456755,0.6171211841822641,0.9584714686289816,0.7000885463687401,0.6777577875187757,0.5756831965156491,1.068250600606539,0.9804037812880568,0.9141605309376909,0.5090002681499619,0.7095037404671859,1.081235893291699,0.785945408648465,0.5792613938001469,0.6990737348421288,0.9871628320065212,0.4468096509062429,0.2789126345738442,0.504605349212064,0.5809457367158629,795.7875457875458,806.2637362637363,808.2783882783883,810.2930402930403,1621.794871794872,1622.197802197802,-0.512024,0.093018,0.812561,-1.973877,0.082245,8.703003,1,1,1,1,1,84.000000
2024-12-18 12:45:07.562,0.7226381005820728,0.7638091195695167,0.9271080325358657,0.7061312693671263,0.7492371540891142,0.6968714636924771,1.127043981958799,0.9585043591917052,0.9217891945281895,0.5189284904504862,0.7460054613594757,1.111914272366054,0.8238788225089991,0.577807791411257,0.6666447563028912,1.018093684291801,0.4568878861417486,0.287469277219307,0.438252499743243,0.5647365990158443,804.2490842490843,812.3076923076924,820.7692307692308,839.3040293040293,985.5677655677656,1260.3663003663,-0.442383,0.005676,0.631775,3.850555,1.809387,-3.581390,1,1,1,1,1,84.000000
2024-12-18 12:45:08.067,0.7014886978082233,0.7995916083595265,0.9851565033925856,0.7635376470131827,0.758405503187802,0.7520326328649268,1.179393832042889,0.924519900747294,0.9407880321671858,0.6877563849951261,0.7528079275032278,1.140753928756379,0.8214151603931455,0.5399107750712652,0.609343590863285,0.9974248145586412,0.488507608842472,0.2879902935835654,0.2165528370221869,0.6077704709206456,802.2344322344322,801.4285714285714,801.8315018315019,797.8021978021978,516.5567765567765,257.4725274725275,-0.517822,-0.008423,0.805786,-6.631927,4.411316,-10.661926,1,1,1,1,1,84.000000
2024-12-18 12:45:08.562,0.6484458600132864,0.6503253530990106,0.9317949507027703,0.8173400014493977,0.7874533149665798,0.7238634184947718,1.165701157215072,0.9053737774801139,0.967411439783288,0.6938507843278561,0.7819878507594087,0.9924661363196886,0.7682742131538628,0.5280027226636318,0.5304140704837992,0.9724454553501136,0.4164942809471167,0.2518744518732653,0.100256903974242,0.5706614670957519,794.981684981685,807.4725274725275,799.8168498168499,805.8608058608058,479.8901098901099,0,-0.688416,0.008362,0.870911,-7.132874,5.383301,3.618774,1,1,1,1,1,84.000000
2024-12-18 12:45:09.070,0.512078813480302,0.3346436479707175,0.9282528707338248,0.8841055048657271,0.6500370899918854,0.5978141459074982,1.076302781601479,0.8968577047412407,0.9031370042965039,0.6801661521077957,0.7412215513335026,0.9284756607088203,0.6235150824348339,0.6649485386810207,0.5064412630056753,0.8897204072805533,0.3663877261022654,0.2427957378709668,0.05071449506450006,0.5442187640309207,812.7106227106227,801.8315018315019,811.5018315018315,807.4725274725275,772.8205128205128,607.2161172161173,-0.618530,-0.022888,0.873596,2.945862,0.643005,-0.508423,1,1,1,1,1,84.000000
2024-12-18 12:45:09.562,0.6437848226741092,0.4242738710684963,0.9735776628999985,1.061819159348059,0.6592432725209403,0.5088679016122603,1.057026776681842,0.8440002836123499,0.8449085263785875,0.6623505901837656,0.8611033990433651,0.8872765047663894,0.6729653367774148,0.7694205929902891,0.5799904128654475,0.8866746347953655,0.56974918083533,0.2039819029819555,0.1252526130823141,0.6676077480256465,794.981684981685,805.8608058608058,803.040293040293,797.3992673992674,0,0.4029304029304029,-0.530762,0.019409,0.748169,0.441132,-3.499146,5.787048,1,1,1,1,1,84.000000
2024-12-18 12:45:10.067,0.5644024683070225,0.3623934516194373,0.9041249591594486,1.039972818710867,0.3356033513644591,0.1992431795994787,0.9877337632578901,0.7345171102659496,0.7697225445053686,0.3407368625519492,0.8772060520266685,0.7176834680198039,0.7846189590830166,0.7845763375711662,0.6073705572521975,0.8941755460695957,0.698647827027838,0.2364101439872892,0.1315716102836045,0.758565670116266,808.6813186813187,802.2344322344322,800.6227106227107,807.8754578754579,96.30036630036631,0,-0.500366,-0.012817,0.745728,1.099091,0.687866,5.719757,1,1,1,1,1,84.000000
2024-12-18 12:45:10.562,0.4689634280095423,0.342467854935522,0.9187733976624378,1.014412536276617,0.3315281503325997,0.1847928631178527,0.9912199851018046,0.799895282173028,0.7981550757213809,0.3580208396596728,0.8554474118969956,0.9306936212024778,0.7169585346927048,0.7167539354627129,0.5914218939514595,0.8673517431479735,0.6975341731271815,0.2803812713337916,0.0868419062948588,0.7781191412125088,799.0109890109891,801.025641025641,799.0109890109891,794.981684981685,736.1538461538462,624.5421245421246,-0.489624,0.030945,0.778381,0.127106,1.659851,-8.366547,1,1,1,1,1,84.000000
2024-12-18 12:45:11.062,0.3152912427918526,0.1952738356492172,0.7799545977797381,0.9317926070581383,0.1850059991161995,0.2072812527050186,0.9298674798167832,0.6875199946315198,0.8599055809510946,0.4167379919218221,0.6952686061519877,0.9370545472744392,0.5431279361675611,0.4963002958591378,0.4853380070298979,0.8203731640373979,0.6217574461544079,0.3178179428097359,0.04694937038578041,0.665882357673068,814.3223443223443,799.4139194139194,792.5641025641025,799.0109890109891,608.4249084249085,118.0586080586081,-0.471069,-0.010376,0.820007,1.801910,-14.497528,5.667419,1,1,1,1,1,84.000000
2024-12-18 12:45:11.568,0.2775202198873089,0.3128363236763613,0.9066732901983428,0.9510623678425086,0.4223507814870482,0.3057074439556502,0.9437796676812292,0.7687885061598561,1.317372741059107,0.5095851556935275,0.4328413105523497,0.9948800271668196,0.8299315736714397,0.3740859381758785,0.3595335670387917,0.8744498646261141,0.6001201433949546,0.3151761023950583,0.05934903609269939,0.552892353992261,828.8278388278388,798.2051282051282,798.6080586080586,825.2014652014652,693.040293040293,541.941391941392,-0.486511,0.007690,0.693604,0.590668,-11.925507,-5.345917,1,1,1,1,1,84.000000
2024-12-18 12:45:12.062,1.098921239381641,0.516853144977261,0.9377040953888118,0.976545272720435,0.9641117581892827,0.3594308258913227,0.8386604080345791,0.6193198531521208,1.317372741059107,0.5364238872632854,0.2830975186498662,0.9502761046533619,0.9279871023265071,0.3910723902526214,0.3769979707846615,0.9080377841953937,0.5634899934074805,0.3527251596438046,0.1545236330377241,0.4600591966716215,770.4029304029305,808.6813186813187,793.3699633699634,776.8498168498169,1627.032967032967,1622.197802197802,-0.540710,-0.057190,0.842834,-3.648682,-15.073242,4.897308,1,1,1,1,1,84.000000
2024-12-18 12:45:12.563,1.217938753852114,0.5029208641311319,0.953768012213417,1.019339211818644,1.088362623300251,0.3302784935188752,0.7984246699235977,0.8873550987643433,1.317372741059107,0.4567813170983799,0.4155715716583521,0.9502761046533619,1.044086681297783,0.4523425053616075,0.4364302775527909,1.035562340155929,0.5266707639126461,0.3281856898148438,0.2055413776273853,0.5442136854886332,797.3992673992674,848.1684981684982,815.934065934066,806.6666666666667,827.2161172161173,958.5714285714286,-0.580444,0.009155,0.789185,7.544098,8.194580,-12.179718,1,1,1,1,1,84.000000
2024-12-18 12:45:13.062,1.492000559986503,0.5814535511217901,0.9510425336660049,1.067194719355466,1.32038398030859,0.3774876232338936,0.7463808833723384,0.9725241140094801,1.185286179285439,0.4256332246965095,0.411234503897348,0.8421301025051758,0.952167865608477,0.5400339696945279,0.4727018404710064,1.025534381376095,0.4232965322052666,0.433986757498548,0.2591317644883962,0.5885817368890068,832.0512820512821,809.8901098901099,808.2783882783883,840.1098901098901,1274.871794871795,1618.974358974359,-0.494507,-0.007080,0.846191,-9.495544,5.854340,21.832275,1,1,1,1,1,84.000000
2024-12-18 12:45:13.069,,,,,,,,,,,,,,,,,,,,,,,,,,,,,,,,,,,,,,,/muse/elements/blink
2024-12-18 12:45:13.562,1.581539979314692,0.4828528427105108,0.8411161222857717,1.067194719355466,1.392301800722015,0.3110321084870042,0.7474583499909343,0.9725241140094801,0.9813057026349553,0.3519827091619216,0.3030538796471565,0.8421301025051758,0.8337513779188911,0.5792352914090744,0.5255561141056148,1.025534381376095,0.3370608836285798,0.4665701351009001,0.3274771891175133,0.5885817368890068,783.6996336996338,777.2527472527473,826.8131868131868,776.0439560439561,571.7582417582418,363.4432234432235,-0.603210,-0.010681,0.973022,7.641296,4.979553,-8.837585,1,1,1,1,1,84.000000
2024-12-18 12:45:13.750,,,,,,,,,,,,,,,,,,,,,,,,,,,,,,,,,,,,,,,/muse/elements/blink
2024-12-18 12:45:14.035,,,,,,,,,,,,,,,,,,,,,,,,,,,,,,,,,,,,,,,/muse/elements/blink
2024-12-18 12:45:14.062,1.581539979314692,0.7315215946467533,0.8411161222857717,1.067194719355466,1.392301800722015,0.7321651333937138,0.7474583499909343,0.9725241140094801,0.9813057026349553,0.8606935888560271,0.3030538796471565,0.8421301025051758,0.8337513779188911,0.8578090905364956,0.5255561141056148,1.025534381376095,0.3370608836285798,0.7536278910161232,0.3274771891175133,0.5885817368890068,784.5054945054945,778.8644688644689,794.5787545787546,790.5494505494506,782.4908424908425,671.6849816849817,-0.781189,-0.036316,1.107239,-4.015045,4.306641,6.175842,1,1,1,1,1,84.000000
2024-12-18 12:45:14.272,,,,,,,,,,,,,,,,,,,,,,,,,,,,,,,,,,,,,,,/muse/elements/blink
2024-12-18 12:45:14.574,1.581539979314692,0.651525575440175,0.8411161222857717,1.067194719355466,1.392301800722015,0.9758677885084315,0.7474583499909343,0.9725241140094801,0.9813057026349553,0.9282244744383212,0.3030538796471565,0.8421301025051758,0.8337513779188911,1.056787646798152,0.5255561141056148,1.025534381376095,0.3370608836285798,0.7765416820675372,0.3274771891175133,0.5885817368890068,825.2014652014652,793.3699633699634,806.2637362637363,801.8315018315019,691.025641025641,450.4761904761905,-0.591675,0.016724,0.863464,-3.372040,4.149628,-3.312225,1,1,1,1,1,84.000000
2024-12-18 12:45:15.062,1.581539979314692,0.5932087122365167,0.8411161222857717,1.067194719355466,1.392301800722015,0.8898121197295498,0.7474583499909343,0.9725241140094801,0.9813057026349553,1.007146843848839,0.3030538796471565,0.8421301025051758,0.8337513779188911,1.057682546457158,0.5255561141056148,1.025534381376095,0.3370608836285798,0.7376389404180542,0.3274771891175133,0.5885817368890068,817.5457875457876,801.8315018315019,811.0989010989011,837.2893772893773,155.1282051282051,8.864468864468865,-0.593018,0.043762,0.824341,-3.955231,1.801910,8.620758,1,2,1,1,2,84.000000
2024-12-18 12:45:15.561,0.8946099056459472,0.5190033779079785,0.766150817120869,1.180649177187367,0.614082861411167,0.7837652661935095,0.6624265717971276,0.9865780471703951,1.122228973830587,1.027018584842873,0.6880052529102794,1.146876581640567,1.249622721157018,1.055571905786551,0.7863116775932073,1.434118878924087,0.8328676531899379,0.7327177544022941,0.8693470564813359,1.219703194662628,806.2637362637363,802.2344322344322,770.8058608058608,774.4322344322345,0,0,-0.513611,-0.009827,0.712646,1.278534,-4.209442,6.445007,1,1,1,1,1,84.000000
2024-12-18 12:45:16.072,0.7577604656854127,0.3635175585653709,0.7488225395583968,1.122091007402313,0.6254002386276613,0.6072783398873054,0.7539687072930438,0.9532800106377562,1.124901519920198,1.013653452875561,0.6880052529102794,1.147276995226975,1.176847796230078,0.9761463874795105,0.7432996327244686,1.372253307079981,0.7660360231678279,0.6548788973906261,0.7819153906020898,1.188219385324828,797.3992673992674,808.6813186813187,802.2344322344322,794.1758241758242,469.010989010989,73.33333333333333,-0.485657,0.008728,0.719177,-2.579498,-5.158997,-2.953339,1,1,1,1,1,84.000000
2024-12-18 12:45:16.562,0.712542623917054,0.3204106714276507,0.7061169335867284,1.08807672411905,0.5778193508236185,0.5364594804502801,0.8524816364594799,0.9572578053855945,1.131615306181061,0.9018472005772393,0.6923261587293913,1.193694264817077,1.135700183683239,0.8420451472267958,0.7496534632172949,1.311780713623313,0.7891266715634647,0.568348976843256,0.7129026347780222,1.124618106287497,813.5164835164835,812.7106227106227,790.952380952381,794.5787545787546,935.6043956043957,737.7655677655678,-0.476196,-0.008179,0.719177,2.983246,-3.312225,6.676788,1,1,1,1,1,84.000000
2024-12-18 12:45:17.062,0.7913968065803533,0.3466846004391921,0.7506863017718279,1.035975641880741,0.6230791512413547,0.5503024960626288,1.023191340287101,0.8216856256915787,1.216895831311629,0.9628536804559169,0.399543165905253,1.059014742944739,1.024131218121429,0.6803832140749434,0.7497676516334607,1.122216805377003,0.7427119484779837,0.5590276704502762,0.3791690920691818,0.956202970601054,818.7545787545788,799.4139194139194,810.6959706959707,812.3076923076924,1116.520146520146,1134.249084249084,-0.565186,0.035950,0.741760,0.179443,-5.106659,-0.934601,1,1,1,1,1,84.000000
2024-12-18 12:45:17.562,0.827345945386899,0.2460224926997837,0.7322355096346088,1.054772891482406,0.4590107269837446,0.470899532329187,0.9197234279433527,0.801212320329958,1.226268367411162,0.9713411540004632,0.359062989165063,1.020679046663503,0.9933820560503723,0.6404738304790303,0.7454429145200611,1.086965440219193,0.7071638406723447,0.5177610124583925,0.4386714801777832,0.8856919918525564,786.9230769230769,811.0989010989011,815.934065934066,797.8021978021978,1619.78021978022,1621.794871794872,-0.576416,-0.011963,0.970703,0.142059,-2.773895,8.725433,1,1,1,1,1,84.000000
2024-12-18 12:45:18.062,0.8180826970496953,0.05865012204800721,0.8003550855745848,0.9903475448083892,0.4184799458936346,0.3829604592032151,0.8786620660755345,0.6869470192417086,1.226268367411162,0.9713411540004632,0.4768518877058358,1.072662222272461,0.976546675494856,0.6559081138159426,0.7335052488362722,1.036106143561213,0.6579327721010761,0.5589018041730932,0.4928662948203824,0.8183148225205463,785.3113553113553,822.3809523809524,817.1428571428571,813.5164835164835,849.3772893772895,895.7142857142858,-0.480286,0.015747,0.791138,2.115936,4.291687,-6.273041,1,1,1,1,1,84.000000
2024-12-18 12:45:18.562,0.6488733672825981,0.02548607107754914,0.8428640367613623,0.7382745840203718,0.1721416005344026,0.4908482841046397,0.9619716700469565,0.7399824461608515,0.9449905525673749,0.8774506538071034,0.5036547906919933,1.044586755173266,0.949102850476784,0.6065589072015509,0.7370645844088881,0.8948331653219955,0.6164288596699885,0.4358749198737729,0.5163569241325749,0.597249104030801,724.8717948717949,784.9084249084249,795.7875457875458,691.4285714285714,924.7252747252747,1102.417582417582,-0.553833,-0.021667,0.937256,5.585175,5.944061,8.344116,1,1,1,1,1,84.000000
2024-12-18 12:45:18.737,,,,,,,,,,,,,,,,,,,,,,,,,,,,,,,,,,,,,,,/muse/elements/blink
2024-12-18 12:45:19.062,1.05280575163874,0.4887246331441346,0.9487417482164752,0.7382745840203718,0.7720777089955121,0.5921476370184807,1.098519088484942,0.7399824461608515,1.088704354571116,0.6620626132646479,0.7202867118032203,1.044586755173266,0.8680682973367567,0.7041094246700024,0.8222196943983914,0.8948331653219955,0.6859604631650675,0.4115392749113992,0.6126734429320774,0.597249104030801,805.8608058608058,809.0842490842491,806.2637362637363,817.1428571428571,504.4688644688645,157.5457875457876,-0.672363,0.018738,0.887024,10.018921,-4.104767,-10.766602,1,1,1,1,1,84.000000
2024-12-18 12:45:19.566,1.294498443067059,0.4990131434563491,0.9889713388725083,0.7662603171024035,1.051359522483022,0.5882388301395776,1.074587911547693,0.7578137603864762,1.065792056953664,0.6662942209298458,0.775714386883642,1.044586755173266,0.8507317399956317,0.7077862484758131,0.8153420121950076,0.907640437611297,0.710490694845704,0.4399427876257548,0.6457046862865454,0.6080848235414683,808.6813186813187,803.040293040293,808.6813186813187,817.5457875457876,85.01831501831502,0,-0.671631,0.039368,0.877991,-0.553284,-0.441132,-0.964508,1,1,1,1,1,84.000000
2024-12-18 12:45:20.062,1.290219349194587,0.4547152452457353,1.056369278912021,0.8077186469112148,1.090226967260265,0.5439640102217512,1.047821597756158,0.7797352192414476,1.062998922604395,0.6657196222522505,0.8218406355887018,1.044586755173266,0.7733014167083967,0.7443226014428631,0.776365574294514,0.8924939622202102,0.8267771005706721,0.4037993944190815,0.6507605465660896,0.6039922967061975,801.4285714285714,795.3846153846154,785.3113553113553,783.6996336996338,642.6739926739926,269.5604395604396,-0.500732,-0.010437,0.712585,3.850555,-4.418793,6.744080,1,1,1,1,1,84.000000
2024-12-18 12:45:20.565,0.4841928305284184,-0.08676347397520902,1.081816516857108,0.9018385802744671,0.2707370209996582,0.4055426349554448,1.013735789295517,0.9022830345669057,0.5235397070749085,0.6539401411312136,0.9263256147212195,1.002696669402433,0.7454628529065769,0.6658874295415186,0.6292952607465527,0.8035409039930412,0.7929071220135356,0.5045624071283104,0.5433112113625014,0.5551888217798386,801.025641025641,812.3076923076924,809.0842490842491,807.0695970695971,826.007326007326,922.3076923076924,-0.461914,-0.005249,0.733521,-5.263672,-3.357086,-3.887939,1,1,1,1,1,84.000000
2024-12-18 12:45:21.062,0.5202648586481449,-0.0704257094601088,1.123201306385222,0.8843321400875298,0.3617544715536074,0.422366388419811,1.114738500334381,0.9287409228002139,0.6709349608979087,0.3984917805707642,0.9085668670902768,1.008189737083704,0.7565516506831638,0.7631402088414129,0.5473539561159211,0.875587778919889,0.7752204567618206,0.5652438120392992,0.4077757377285725,0.6437727632390985,760.7326007326008,795.7875457875458,798.6080586080586,753.0769230769231,965.8241758241759,1035.531135531136,-0.492920,-0.041626,0.692749,1.428070,-12.404022,3.940277,1,1,1,1,1,84.000000
2024-12-18 12:45:21.259,,,,,,,,,,,,,,,,,,,,,,,,,,,,,,,,,,,,,,,/muse/elements/blink
2024-12-18 12:45:21.562,0.5288314329667743,0.05108590350180885,0.9391142363122168,0.8022017701945182,0.3200555009232069,0.3275868598614664,1.057950770111028,0.8686931589969417,0.6358171454147195,0.5446878155997905,0.9984409802793296,0.9560984861314147,0.7629920480757072,0.8638029775047548,0.5541519436221756,0.8681891472640613,0.7654474984595308,0.6166794534868746,0.4203119108538018,0.6722569623573786,801.025641025641,792.5641025641025,783.2967032967033,792.967032967033,1388.498168498169,1597.619047619048,-0.558716,0.074036,0.779541,7.319794,-0.934601,1.121521,1,1,1,1,1,84.000000
2024-12-18 12:45:22.062,0.6227364075144982,0.1721708485490175,0.8586370405978971,0.8518877414397845,0.5081336523232934,0.5715780327413407,1.067295879531704,0.9714857668377245,0.5780232004567268,0.6137327824235621,0.9036020382415381,0.6282130294279732,0.8181056719342665,0.8846491183269422,0.684173826510198,0.9785398736505778,0.7437086818727805,0.5436045273535196,0.4768662476261595,0.7653001021510241,784.1025641025641,794.981684981685,779.2673992673992,761.941391941392,1621.794871794872,1622.197802197802,-0.582703,-0.044495,0.740723,-4.695435,15.028381,-2.557068,1,1,1,1,1,84.000000
2024-12-18 12:45:22.562,0.6227364075144982,0.203658498700216,0.8548057835123951,0.8518877414397845,0.5081336523232934,0.5281927308271167,1.026310156876155,0.9714857668377245,0.5780232004567268,0.6179854382263172,1.09729638641089,0.6282130294279732,0.8181056719342665,0.8053521704887755,0.6436513711167098,0.9785398736505778,0.7437086818727805,0.4778787912017308,0.4345676272154767,0.7653001021510241,813.919413919414,782.4908424908425,811.9047619047619,815.5311355311355,753.4798534798535,567.7289377289377,-0.574280,0.027222,0.853210,-4.388885,-1.016846,-8.127289,1,1,1,1,1,84.000000
2024-12-18 12:45:23.062,0.942743742817937,0.4366154916682824,0.903226207131417,1.285202955304448,0.7104995536094112,0.6102447392067299,0.9592566904171442,1.189728433901243,0.9149524190296067,0.539014955654662,1.07510425240893,1.304148023304811,0.8862027334052892,0.6950557733336454,0.6344467601234565,0.9142622316225264,0.7969351776883931,0.4700209246395436,0.3669887467604414,0.8420117800231316,780.0732600732601,800.6227106227107,804.6520146520147,794.5787545787546,697.8754578754579,610.0366300366301,-0.768738,-0.046204,1.113281,-5.600128,9.271240,3.745880,1,1,1,1,1,84.000000
2024-12-18 12:45:23.404,,,,,,,,,,,,,,,,,,,,,,,,,,,,,,,,,,,,,,,/muse/elements/blink
2024-12-18 12:45:23.562,0.942743742817937,0.5323881831537214,0.8287542030291895,1.285202955304448,0.7104995536094112,0.438969675650766,0.7316776830155578,1.189728433901243,0.9149524190296067,0.3924789308456799,1.060368514157193,1.304148023304811,0.8862027334052892,0.6180784512287818,0.5767251145067124,0.9142622316225264,0.7969351776883931,0.4925249056853127,0.3113534104702641,0.8420117800231316,805.0549450549451,790.952380952381,813.1135531135532,832.8571428571429,868.7179487179487,879.1941391941392,-0.586365,-0.001526,0.878235,-5.181427,-1.570129,6.026306,1,1,1,1,1,84.000000
2024-12-18 12:45:24.062,0.9046562690753041,0.705409279631439,0.7893282684304772,1.285202955304448,0.7818793681997463,0.5004156920541036,0.4216990653742809,1.189728433901243,0.9149524190296067,0.328557101091752,1.004584429412034,1.304148023304811,0.9499883112448924,0.6541649569419851,0.6239127487874423,0.9142622316225264,0.8727798815459877,0.5132894949200884,0.2973051472325934,0.8420117800231316,802.2344322344322,811.9047619047619,801.4285714285714,805.0549450549451,6.043956043956044,0,-0.555420,0.024719,0.862854,-3.693542,-3.140259,3.065491,1,1,1,1,1,84.000000
2024-12-18 12:45:24.562,0.9046562690753041,0.705409279631439,0.958949902910767,1.285202955304448,0.7818793681997463,0.5004156920541036,0.9826359518546087,1.189728433901243,0.9149524190296067,0.328557101091752,0.7368101786213022,1.304148023304811,0.9499883112448924,0.6541649569419851,0.7723304043514549,0.9142622316225264,0.8727798815459877,0.5132894949200884,0.3958890355453364,0.8420117800231316,787.7289377289378,799.4139194139194,809.0842490842491,794.981684981685,25.38461538461539,0,-0.472717,-0.028687,0.702454,3.200073,0.336456,4.209442,1,1,1,1,1,84.000000
2024-12-18 12:45:25.067,0.6984045003409231,1.08315136481083,1.077172955342306,1.285202955304448,0.3602420866859732,0.740406986623161,1.110087811857834,1.189728433901243,0.5975143465558558,0.5411258061360947,0.7368101786213022,1.304148023304811,0.7416743177741894,0.5562228391212893,0.7593271859853711,0.9142622316225264,0.7175817789168288,0.4296015559808395,0.4055693579834361,0.8420117800231316,790.952380952381,796.996336996337,797.8021978021978,784.9084249084249,485.9340659340659,53.18681318681319,-0.465454,0.011047,0.747314,2.056122,-2.190704,-4.471130,1,1,1,1,1,84.000000
2024-12-18 12:45:25.433,,,,,,,,,,,,,,,,,,,,,,,,,,,,,,,,,,,,,,,/muse/elements/blink
2024-12-18 12:45:25.562,0.6867649513458356,0.9697953514580884,0.9479746185373435,1.285202955304448,0.3689488098034968,0.652538860168425,1.000102030003921,1.189728433901243,0.6025154751834546,0.5650465428738309,0.7368101786213022,1.304148023304811,0.7185735223534092,0.5435297243940065,0.5282300298228279,0.9142622316225264,0.6835388571747708,0.3935923802623666,0.214647696986303,0.8420117800231316,803.8461538461539,800.6227106227107,790.5494505494506,788.5347985347986,772.014652014652,640.6593406593407,-0.434265,0.008850,0.831360,9.301147,5.637512,-20.643463,1,1,1,1,1,84.000000
2024-12-18 12:45:26.062,0.6805192637204356,0.9262892960768809,0.9708806661655104,1.285202955304448,0.4010644099238129,0.7684023055332988,0.8738756235358982,1.189728433901243,0.582215897030702,0.654467263374961,0.7048261969491145,1.304148023304811,0.6754673901702902,0.5787759143541089,0.2906832642228601,0.9142622316225264,0.5976474813265363,0.306552784930623,-0.1288829519542829,0.8420117800231316,778.8644688644689,776.0439560439561,817.1428571428571,784.5054945054945,1053.663003663004,1163.663003663004,-0.458984,-0.036743,0.807800,7.559052,1.465454,-0.508423,1,1,1,1,1,84.000000
2024-12-18 12:45:26.566,0.9869083382442285,0.8001568359264435,1.035295263743993,1.285202955304448,0.6917706980753323,0.6968512025503434,0.7188484021279383,1.189728433901243,0.8068844650699233,0.7124452836289656,0.59590827677612,1.304148023304811,0.4542246823939199,0.5580945632343042,0.366762700468502,0.9142622316225264,0.5582805312310494,0.3182135162499521,0.1335814399823891,0.8420117800231316,820.3663003663004,812.7106227106227,806.2637362637363,803.8461538461539,1031.501831501831,1297.032967032967,-0.478577,0.050659,0.879944,0.508423,-10.452576,4.927216,1,1,1,1,1,84.000000
