TimeStamp,Delta_TP9,Delta_AF7,Delta_AF8,Delta_TP10,Theta_TP9,Theta_AF7,Theta_AF8,Theta_TP10,Alpha_TP9,Alpha_AF7,Alpha_AF8,Alpha_TP10,Beta_TP9,Beta_AF7,Beta_AF8,Beta_TP10,Gamma_TP9,Gamma_AF7,Gamma_AF8,Gamma_TP10,RAW_TP9,RAW_AF7,RAW_AF8,RAW_TP10,AUX_RIGHT,AUX_LEFT,Accelerometer_X,Accelerometer_Y,Accelerometer_Z,Gyro_X,Gyro_Y,Gyro_Z,HeadBandOn,HSI_TP9,HSI_AF7,HSI_AF8,HSI_TP10,Battery,Elements
2024-12-21 15:52:19.212,,,,,,,,,,,,,,,,,,,,,,,,,,,,,,,,,,,,,,,/muse/event/connected MuseS-9CF6
2024-12-21 15:52:19.255,,,,,,,,,,,,,,,,,,,,,,,,,,,,,,,,,,,,,,,/muse/elements/jaw_clench
2024-12-21 15:52:19.632,,,,,,,,,,,,,,,,,,,,,,,,,,,,,,,,,,,,,,,/muse/elements/blink
2024-12-21 15:52:19.713,-0.1842997400837005,0.1831816517645489,0.4623338740024979,-0.1153395314029118,0.05392770884287459,-0.2833334886966681,-0.1592194639261362,0.1645554105980454,0.522192501210536,-0.03472022398139106,0.01060798690327408,0.5429997443408731,0.9039425148652419,0.144601804497329,0.3158152424903051,0.3503346451203389,0.7202870859710012,0.1291754272535093,0.2258359526583331,0.3168972139611079,796.5934065934066,780.4761904761905,803.8461538461539,838.901098901099,894.908424908425,823.1868131868132,-0.403381,-0.001526,0.918152,0.822449,0.224304,-1.293488,1,2,1,1,2,93.000000
2024-12-21 15:52:19.895,,,,,,,,,,,,,,,,,,,,,,,,,,,,,,,,,,,,,,,/muse/elements/jaw_clench
2024-12-21 15:52:20.213,-0.1842997400837005,0.2441946544753407,0.6003510088540228,-0.1153395314029118,0.05392770884287459,-0.232322597169435,-0.2563548962284242,0.1645554105980454,0.522192501210536,-0.1569242298650494,-0.07647383295182238,0.5429997443408731,0.9039425148652419,0.2839190802418931,0.4280805029016055,0.3503346451203389,0.7202870859710012,0.3101694333791507,0.3019669749548669,0.3168972139611079,737.7655677655678,807.0695970695971,808.2783882783883,807.4725274725275,767.1794871794872,653.956043956044,-0.406677,0.015991,0.907593,-0.246735,-0.074768,0.201874,1,2,1,1,2,93.000000
2024-12-21 15:52:20.717,-0.1842997400837005,0.2441946544753407,0.6003510088540228,-0.1153395314029118,0.05392770884287459,-0.232322597169435,-0.2563548962284242,0.1645554105980454,0.522192501210536,-0.1569242298650494,-0.07647383295182238,0.5429997443408731,0.9039425148652419,0.2839190802418931,0.4280805029016055,0.3503346451203389,0.7202870859710012,0.3101694333791507,0.3019669749548669,0.3168972139611079,741.7948717948718,805.8608058608058,806.6666666666667,784.1025641025641,780.8791208791209,676.1172161172161,-0.406982,0.003540,0.911926,1.443024,-1.278534,-0.433655,1,2,1,1,2,93.000000
2024-12-21 15:52:21.016,,,,,,,,,,,,,,,,,,,,,,,,,,,,,,,,,,,,,,,/muse/elements/blink
2024-12-21 15:52:21.016,,,,,,,,,,,,,,,,,,,,,,,,,,,,,,,,,,,,,,,/muse/elements/jaw_clench
2024-12-21 15:52:21.213,-0.1842997400837005,0.2441946544753407,0.6827080362831693,-0.1153395314029118,0.05392770884287459,-0.232322597169435,0.2087791510006935,0.1645554105980454,0.522192501210536,-0.1569242298650494,0.1837027906995066,0.5429997443408731,0.9039425148652419,0.2839190802418931,0.5981167851132491,0.3503346451203389,0.7202870859710012,0.3101694333791507,0.3520535027946163,0.3168972139611079,832.4542124542124,800.2197802197802,791.3553113553114,792.967032967033,828.4249084249085,826.007326007326,-0.409302,0.010132,0.900818,0.164490,0.583191,-0.291595,1,2,1,1,2,93.000000
2024-12-21 15:52:21.713,-0.1842997400837005,0.2441946544753407,0.9721895267051807,-0.1153395314029118,0.05392770884287459,-0.232322597169435,0.326580410873475,0.1645554105980454,0.522192501210536,-0.1569242298650494,0.1875784149907289,0.5429997443408731,0.9039425148652419,0.2839190802418931,0.543947450522499,0.3503346451203389,0.7202870859710012,0.3101694333791507,0.3133240341385378,0.3168972139611079,890.8791208791209,817.5457875457876,801.4285714285714,790.952380952381,955.7509157509157,888.8644688644689,-0.418091,0.003540,0.902527,0.314026,-1.480408,-0.321503,1,2,1,1,2,93.000000
2024-12-21 15:52:21.716,,,,,,,,,,,,,,,,,,,,,,,,,,,,,,,,,,,,,,,/muse/elements/jaw_clench
2024-12-21 15:52:21.956,,,,,,,,,,,,,,,,,,,,,,,,,,,,,,,,,,,,,,,/muse/elements/jaw_clench
2024-12-21 15:52:22.213,-0.1842997400837005,0.2441946544753407,0.9040183775616512,-0.1153395314029118,0.05392770884287459,-0.232322597169435,0.2427107899613276,0.1645554105980454,0.522192501210536,-0.1569242298650494,0.1690803963215128,0.5429997443408731,0.9039425148652419,0.2839190802418931,0.4550234667486847,0.3503346451203389,0.7202870859710012,0.3101694333791507,0.2411581807273112,0.3168972139611079,784.9084249084249,800.2197802197802,802.2344322344322,788.1318681318681,768.7912087912088,670.8791208791209,-0.393616,0.022827,0.920044,0.351410,0.269165,-0.179443,1,2,1,1,2,93.000000
2024-12-21 15:52:22.571,,,,,,,,,,,,,,,,,,,,,,,,,,,,,,,,,,,,,,,/muse/elements/blink
2024-12-21 15:52:22.715,-0.1842997400837005,0.2441946544753407,1.013546903160782,-0.1153395314029118,0.05392770884287459,-0.232322597169435,0.3919558206566054,0.1645554105980454,0.522192501210536,-0.1569242298650494,0.3471560291171219,0.5429997443408731,0.9039425148652419,0.2839190802418931,0.05230262770996251,0.3503346451203389,0.7202870859710012,0.3101694333791507,-0.09531688368159438,0.3168972139611079,807.4725274725275,805.0549450549451,798.6080586080586,807.8754578754579,764.7619047619048,663.2234432234433,-0.389282,0.016174,0.920837,-0.493469,-1.188812,2.086029,1,2,1,1,2,93.000000
2024-12-21 15:52:23.213,-0.1842997400837005,0.8317247186921528,0.7457652032421016,-0.1153395314029118,0.05392770884287459,0.7768717658292685,0.2839997180840148,0.1645554105980454,0.522192501210536,0.3974541854163846,0.1960619172339275,0.5429997443408731,0.9039425148652419,0.2511659022778822,-0.1320113658323226,0.3503346451203389,0.7202870859710012,-0.02198284817543189,-0.2489410319847965,0.3168972139611079,861.0622710622711,796.5934065934066,778.0586080586081,866.7032967032967,742.1978021978023,671.2820512820513,-0.410889,0.006592,0.899475,-0.104675,0.284119,-0.456085,1,2,1,1,2,93.000000
2024-12-21 15:52:23.259,,,,,,,,,,,,,,,,,,,,,,,,,,,,,,,,,,,,,,,/muse/elements/blink
2024-12-21 15:52:23.713,-0.1842997400837005,0.700508171114804,0.9093981354050411,-0.1153395314029118,0.05392770884287459,0.5091791164580387,0.470386707950826,0.1645554105980454,0.522192501210536,0.5269086237112652,0.1950054285595505,0.5429997443408731,0.9039425148652419,0.1995676033195274,-0.3124726129164592,0.3503346451203389,0.7202870859710012,-0.1135122862775269,-0.3835412559372269,0.3168972139611079,822.7838827838829,805.8608058608058,798.2051282051282,811.5018315018315,856.6300366300367,766.7765567765568,-0.404053,0.007385,0.907715,1.203766,-2.467346,-0.448608,1,2,1,1,2,93.000000
2024-12-21 15:52:24.213,-0.1842997400837005,0.619401844006631,0.9890491552356399,-0.1153395314029118,0.05392770884287459,0.3545164106459846,0.5570698934349952,0.1645554105980454,0.522192501210536,0.5269086237112652,0.1812374062184081,0.5429997443408731,0.9039425148652419,0.1222992355005314,-0.3567220672640124,0.3503346451203389,0.7202870859710012,-0.1945469316704212,-0.4179878160804557,0.3168972139611079,817.948717948718,802.2344322344322,804.6520146520147,808.2783882783883,853.0036630036631,839.7069597069598,-0.471130,0.004089,0.868958,-0.366364,-16.733093,3.013153,1,2,1,1,2,93.000000
2024-12-21 15:52:24.712,-0.1842997400837005,0.3543305234776209,0.1440871900653562,-0.1153395314029118,0.05392770884287459,-0.09308323781135686,0.03164602655564749,0.1645554105980454,0.522192501210536,0.3116604014020167,-0.1328317402947575,0.5429997443408731,0.9039425148652419,0.02881308995490649,-0.1734441683030241,0.3503346451203389,0.7202870859710012,-0.2395063519253465,-0.658729766498816,0.3168972139611079,829.2307692307693,801.025641025641,795.3846153846154,786.9230769230769,707.5457875457876,603.1868131868132,-0.437073,0.024475,0.905579,-1.555176,-2.960815,-0.770111,1,2,1,1,2,93.000000
2024-12-21 15:52:25.213,-0.1842997400837005,0.06452573722116907,-0.009695376865384308,-0.1153395314029118,0.05392770884287459,-0.2424382128995397,0.06221582259709935,0.1645554105980454,0.522192501210536,0.0682850609121682,-0.12181691728222,0.5429997443408731,0.9039425148652419,-0.09857804329194203,-0.1535707700040534,0.3503346451203389,0.7202870859710012,-0.2925066505378481,-0.5252473820798793,0.3168972139611079,804.6520146520147,798.2051282051282,803.4432234432235,815.1282051282052,846.5567765567765,830.0366300366301,-0.429382,-0.106873,0.866089,-0.560760,1.487885,-6.504822,1,2,1,1,2,93.000000
2024-12-21 15:52:25.713,0.7208612066483379,-0.3677943483935087,0.02254029846927272,-0.1755670894242171,0.7011776966998161,-0.2562407840259534,0.01511777158438968,-0.1482595572893493,0.9290805617517778,-0.06990892970712224,-0.05557748353361957,0.1443177363178041,1.106284781600694,-0.09893626772901021,-0.1383151620236449,0.4893615197065712,1.209061058628716,-0.3234427462232159,-0.4908325026672065,0.07412523612357158,816.3369963369963,794.1758241758242,794.1758241758242,843.7362637362637,690.2197802197802,649.1208791208792,-0.495056,0.029419,0.782349,1.786957,4.545898,-1.757050,1,1,1,1,1,93.000000
2024-12-21 15:52:25.804,,,,,,,,,,,,,,,,,,,,,,,,,,,,,,,,,,,,,,,/muse/elements/blink
2024-12-21 15:52:26.213,0.7208612066483379,0.2156809376209034,0.4610662469034629,-0.1755670894242171,0.7011776966998161,-0.1425086696231035,0.1654589524705182,-0.1482595572893493,0.9290805617517778,-0.107512563761433,-0.03341730389138714,0.1443177363178041,1.106284781600694,-0.1037643732101038,-0.1155838387125815,0.4893615197065712,1.209061058628716,-0.4384096053615391,-0.4278047213881852,0.07412523612357158,765.5677655677656,796.1904761904763,805.4578754578755,823.5897435897436,855.8241758241759,977.9120879120879,-0.377380,-0.098633,0.808838,2.093506,-0.710297,3.461761,1,1,1,1,1,93.000000
2024-12-21 15:52:26.713,0.631703621237782,0.343723811163949,0.6477052024595897,-0.1681905044515144,0.4057419645062494,0.01792577925173,0.1701454054012371,-0.2654158383484533,0.879517496283,-0.2053665176177387,0.02649270180694399,0.06432126287072949,1.081410575513703,0.02062414307560087,-0.00728921706177752,0.478742783833627,1.235914538308887,-0.3301381670661486,-0.2287835339834379,0.05583664058097138,761.1355311355312,801.4285714285714,815.1282051282052,789.3406593406594,728.4981684981685,836.4835164835165,-0.383301,-0.028198,0.950256,-1.525269,-0.441132,-5.188904,1,1,1,1,1,93.000000
2024-12-21 15:52:26.815,,,,,,,,,,,,,,,,,,,,,,,,,,,,,,,,,,,,,,,/muse/elements/blink
2024-12-21 15:52:27.218,0.631703621237782,0.4994366183910359,0.9405093991270247,-0.1681905044515144,0.4057419645062494,0.1696387763606028,0.6418903545808813,-0.2654158383484533,0.879517496283,0.1651563935925524,0.03372282342865986,0.06432126287072949,1.081410575513703,0.1098105530460796,0.09332221851867413,0.478742783833627,1.235914538308887,-0.2865251090352298,0.1385309576983074,0.05583664058097138,807.4725274725275,795.7875457875458,805.4578754578755,821.1721611721612,806.2637362637363,713.5897435897436,-0.463623,0.066223,0.813477,-0.583191,-1.308441,2.377625,1,1,1,1,1,93.000000
2024-12-21 15:52:27.713,0.631703621237782,0.3560235140915065,0.8215335431070288,-0.1681905044515144,0.4057419645062494,0.128184250422493,0.6568311773383432,-0.2654158383484533,0.879517496283,0.1651563935925524,-0.08190322335874181,0.06432126287072949,1.081410575513703,0.09730841026232384,0.1433931234038736,0.478742783833627,1.235914538308887,-0.1198571389769175,0.24482868289526,0.05583664058097138,861.8681318681319,813.5164835164835,816.7399267399268,838.0952380952381,964.6153846153846,1067.362637362637,-0.463501,-0.065674,0.926819,-2.056122,-7.574005,4.254303,1,1,1,1,1,93.000000
2024-12-21 15:52:28.212,0.631703621237782,0.3085810439247056,0.5979787635971983,-0.1681905044515144,0.4057419645062494,0.0745946940944348,0.4372863112161414,-0.2654158383484533,0.879517496283,0.4217053446064667,0.04295139318564901,0.06432126287072949,1.081410575513703,0.02411468347403292,0.050952421816519,0.478742783833627,1.235914538308887,-0.03132675707594349,0.09691163781701793,0.05583664058097138,700.2930402930403,813.919413919414,851.3919413919414,716.8131868131868,855.0183150183151,628.974358974359,-0.502075,-0.016846,0.987793,-0.493469,-6.332855,-7.850647,1,1,1,1,1,93.000000
2024-12-21 15:52:28.414,,,,,,,,,,,,,,,,,,,,,,,,,,,,,,,,,,,,,,,/muse/elements/blink
2024-12-21 15:52:28.713,0.631703621237782,0.3266003161422582,0.4393419581508832,-0.1681905044515144,0.4057419645062494,0.183152009263011,0.02420209820232083,-0.2654158383484533,0.879517496283,0.4615472704188897,-0.008112154142276118,0.06432126287072949,1.081410575513703,-0.0420009442187135,0.05040464186327335,0.478742783833627,1.235914538308887,-0.01701712609465209,-0.05947865495448171,0.05583664058097138,792.1611721611722,805.0549450549451,798.6080586080586,805.4578754578755,831.2454212454213,770.4029304029305,-0.500244,0.042236,0.839661,1.816864,1.570129,0.299072,1,2,1,1,2,93.000000
2024-12-21 15:52:29.212,0.631703621237782,0.4113652609068181,0.4393419581508832,-0.1681905044515144,0.4057419645062494,0.3104915828391712,0.02420209820232083,-0.2654158383484533,0.879517496283,0.4080407789561463,-0.008112154142276118,0.06432126287072949,1.081410575513703,0.003024181462093234,0.05040464186327335,0.478742783833627,1.235914538308887,-0.04102446218428127,-0.05947865495448171,0.05583664058097138,801.8315018315019,798.2051282051282,800.2197802197802,805.8608058608058,810.2930402930403,792.1611721611722,-0.452759,-0.012024,0.849304,-1.181335,3.768311,4.224396,1,2,1,1,2,93.000000
2024-12-21 15:52:29.719,0.631703621237782,0.407186203693861,0.4714406624757065,-0.1681905044515144,0.4057419645062494,0.2992163879728607,0.07169714681301957,-0.2654158383484533,0.879517496283,0.4037453556205097,-0.03498838716668089,0.06432126287072949,1.081410575513703,0.031041102344697,0.0235978667774313,0.478742783833627,1.235914538308887,-0.07486069658298787,-0.1183665924304442,0.05583664058097138,784.5054945054945,800.2197802197802,810.2930402930403,804.6520146520147,688.2051282051282,547.985347985348,-0.513062,-0.031311,1.020813,-1.323395,0.620575,-8.224487,1,2,1,1,2,93.000000
2024-12-21 15:52:29.972,,,,,,,,,,,,,,,,,,,,,,,,,,,,,,,,,,,,,,,/muse/elements/blink
2024-12-21 15:52:30.212,0.631703621237782,0.4566535884173613,0.2454119492428108,-0.1681905044515144,0.4057419645062494,0.2955915348371702,-0.08507472030785959,-0.2654158383484533,0.879517496283,-0.1222888501329887,-0.1928440219576491,0.06432126287072949,1.081410575513703,0.05379518831158377,-0.1271086008287197,0.478742783833627,1.235914538308887,0.01111602314726883,-0.1322951620977129,0.05583664058097138,813.1135531135532,794.1758241758242,801.025641025641,792.1611721611722,803.8461538461539,705.5311355311355,-0.455566,0.082947,0.854919,0.029907,-3.641205,3.611298,1,2,1,1,2,93.000000
2024-12-21 15:52:30.712,0.631703621237782,0.7259046194676864,0.2454119492428108,-0.1681905044515144,0.4057419645062494,0.3837625664925606,-0.08507472030785959,-0.2654158383484533,0.879517496283,-0.01392560951422551,-0.1928440219576491,0.06432126287072949,1.081410575513703,0.04675621815443053,-0.1271086008287197,0.478742783833627,1.235914538308887,-0.04175947288595163,-0.1322951620977129,0.05583664058097138,829.6336996336996,807.8754578754579,800.2197802197802,772.4175824175825,664.4322344322344,530.2564102564103,-0.426086,-0.038208,0.885986,-1.099091,-4.979553,0.590668,1,2,1,1,2,93.000000
2024-12-21 15:52:31.213,0.631703621237782,0.7415364981093892,0.4752985432715748,-0.1681905044515144,0.4057419645062494,0.3975643154475509,0.04925442938685991,-0.2654158383484533,0.879517496283,0.09918779265666978,-0.1255271046208189,0.06432126287072949,1.081410575513703,0.05109845073615465,-0.05994578249456028,0.478742783833627,1.235914538308887,-0.1245845714220375,-0.02047503205060413,0.05583664058097138,760.7326007326008,790.5494505494506,821.1721611721612,726.4835164835165,634.2124542124542,404.5421245421246,-0.566345,-0.048706,1.088745,2.594452,-1.001892,-7.230072,1,2,1,1,2,93.000000
2024-12-21 15:52:31.378,,,,,,,,,,,,,,,,,,,,,,,,,,,,,,,,,,,,,,,/muse/elements/blink
2024-12-21 15:52:31.719,0.631703621237782,0.8652622380976305,0.652096538355868,-0.1681905044515144,0.4057419645062494,0.4837209694594196,0.244011124359707,-0.2654158383484533,0.879517496283,0.168070813263021,-0.1253551219112492,0.06432126287072949,1.081410575513703,0.01026835480678686,-0.0009569093675656713,0.478742783833627,1.235914538308887,-0.2491533738029147,-0.05991022231181014,0.05583664058097138,819.96336996337,800.2197802197802,794.5787545787546,795.7875457875458,795.7875457875458,714.3956043956044,-0.453491,0.038086,0.827881,-0.246735,-0.000000,2.370148,1,2,1,1,2,93.000000
2024-12-21 15:52:32.213,0.631703621237782,0.7235519002788801,0.652096538355868,-0.1681905044515144,0.4057419645062494,0.337954197411425,0.244011124359707,-0.2654158383484533,0.879517496283,0.1637554875834495,-0.1253551219112492,0.06432126287072949,1.081410575513703,-0.03138308818959529,-0.0009569093675656713,0.478742783833627,1.235914538308887,-0.1859675719748906,-0.05991022231181014,0.05583664058097138,784.1025641025641,796.1904761904763,797.8021978021978,799.8168498168499,727.6923076923077,936.4102564102565,-0.419800,-0.005432,0.825684,0.897217,-4.022522,-0.052338,1,2,1,1,2,93.000000
2024-12-21 15:52:32.696,,,,,,,,,,,,,,,,,,,,,,,,,,,,,,,,,,,,,,,/muse/elements/jaw_clench
2024-12-21 15:52:32.713,0.631703621237782,0.7174813205676837,0.4416906293098147,-0.1681905044515144,0.4057419645062494,0.3131762106462038,-0.02439766577654162,-0.2654158383484533,0.879517496283,0.1506168443848977,-0.1522478374574626,0.06432126287072949,1.081410575513703,-0.0615981373221676,-0.08517706108823513,0.478742783833627,1.235914538308887,-0.2018305066593857,-0.311601475884942,0.05583664058097138,790.5494505494506,796.996336996337,795.3846153846154,790.1465201465202,668.4615384615385,652.3443223443223,-0.415466,0.069214,0.809998,-1.143951,12.045135,-2.945862,1,2,1,1,2,93.000000
2024-12-21 15:52:33.026,,,,,,,,,,,,,,,,,,,,,,,,,,,,,,,,,,,,,,,/muse/elements/blink
2024-12-21 15:52:33.213,0.631703621237782,0.4645472954618233,0.3554301001894317,-0.1681905044515144,0.4057419645062494,0.1162306693346858,-0.2236303577935694,-0.2654158383484533,0.879517496283,0.2587575581563205,-0.3263463507165156,0.06432126287072949,1.081410575513703,0.06994274617028692,-0.09222780865490011,0.478742783833627,1.235914538308887,-0.06473651031146264,-0.353780427768177,0.05583664058097138,820.3663003663004,801.8315018315019,799.4139194139194,800.6227106227107,865.8974358974359,737.7655677655678,-0.450989,0.041748,0.852905,-1.278534,-1.996307,1.472931,1,2,1,1,2,93.000000
2024-12-21 15:52:33.720,0.631703621237782,0.5683218534807392,0.3554301001894317,-0.1681905044515144,0.4057419645062494,0.3610972590181371,-0.2236303577935694,-0.2654158383484533,0.879517496283,0.3275870765471783,-0.3263463507165156,0.06432126287072949,1.081410575513703,0.149087626868956,-0.09222780865490011,0.478742783833627,1.235914538308887,-0.03609038305777317,-0.353780427768177,0.05583664058097138,859.4505494505495,803.8461538461539,801.025641025641,855.4212454212454,882.014652014652,816.3369963369963,-0.445007,-0.054443,0.815979,2.908478,-0.882263,-0.657959,1,2,1,1,2,93.000000
2024-12-21 15:52:34.212,0.631703621237782,0.5403542749655863,0.4020536028717821,-0.1681905044515144,0.4057419645062494,0.379077078441052,-0.2853529769265165,-0.2654158383484533,0.879517496283,0.3011439014853764,-0.4589431394046112,0.06432126287072949,1.081410575513703,0.1596321699965584,-0.1486274899848679,0.478742783833627,1.235914538308887,-0.0103537550704192,-0.4734754431857097,0.05583664058097138,805.4578754578755,791.3553113553114,791.3553113553114,822.3809523809524,921.0989010989011,1108.461538461539,-0.370850,0.144653,0.832397,1.637421,-3.439331,6.287994,1,2,1,1,2,93.000000
2024-12-21 15:52:34.236,,,,,,,,,,,,,,,,,,,,,,,,,,,,,,,,,,,,,,,/muse/elements/blink
2024-12-21 15:52:34.712,0.631703621237782,0.7910481741066239,0.4020536028717821,-0.1681905044515144,0.4057419645062494,0.4856641547426498,-0.2853529769265165,-0.2654158383484533,0.879517496283,0.3021268724230604,-0.4589431394046112,0.06432126287072949,1.081410575513703,0.06291556133383859,-0.1486274899848679,0.478742783833627,1.235914538308887,-0.1457982600294581,-0.4734754431857097,0.05583664058097138,798.2051282051282,801.025641025641,792.5641025641025,794.5787545787546,716.4102564102565,828.8278388278388,-0.453735,0.012939,1.011963,-0.343933,4.358978,-0.157013,1,2,1,1,2,93.000000
2024-12-21 15:52:35.213,0.631703621237782,0.6885685985234612,0.4020536028717821,-0.1681905044515144,0.4057419645062494,0.2165395301165794,-0.2853529769265165,-0.2654158383484533,0.879517496283,0.03524647250186504,-0.4589431394046112,0.06432126287072949,1.081410575513703,-0.1518353543447789,-0.1486274899848679,0.478742783833627,1.235914538308887,-0.351021290224305,-0.4734754431857097,0.05583664058097138,752.2710622710623,799.8168498168499,813.1135531135532,759.92673992674,760.7326007326008,636.6300366300367,-0.432251,-0.029724,0.840698,3.274841,-5.644989,1.226196,1,2,1,1,2,93.000000
2024-12-21 15:52:35.352,,,,,,,,,,,,,,,,,,,,,,,,,,,,,,,,,,,,,,,/muse/elements/blink
2024-12-21 15:52:35.712,0.631703621237782,0.7668155932170947,1.158512640997142,-0.1681905044515144,0.4057419645062494,0.4634170903065735,1.020498030126207,-0.2654158383484533,0.879517496283,0.4603597949878341,0.3588390134265709,0.06432126287072949,1.081410575513703,-0.150882356706549,0.03476988467097873,0.478742783833627,1.235914538308887,-0.5055284738356939,-0.643823184861641,0.05583664058097138,790.952380952381,794.5787545787546,799.4139194139194,821.5750915750916,759.1208791208792,637.4358974358975,-0.416748,0.070862,0.914673,4.246826,-2.213135,-3.790741,1,2,1,1,2,93.000000
2024-12-21 15:52:36.144,,,,,,,,,,,,,,,,,,,,,,,,,,,,,,,,,,,,,,,/muse/elements/blink
2024-12-21 15:52:36.212,0.631703621237782,0.560234176067464,1.163688889592708,-0.1681905044515144,0.4057419645062494,0.4526230563714582,1.001490892067589,-0.2654158383484533,0.879517496283,0.4603597949878341,0.3676388920554865,0.06432126287072949,1.081410575513703,-0.202599261184541,0.01731131609315088,0.478742783833627,1.235914538308887,-0.50122716251241,-0.6437781205497312,0.05583664058097138,854.6153846153846,795.3846153846154,769.5970695970697,852.1978021978023,736.1538461538462,754.6886446886447,-0.524414,-0.000793,1.053711,0.613098,-2.078552,3.596344,1,2,1,1,2,93.000000
2024-12-21 15:52:36.712,0.631703621237782,0.5095230775931899,1.163688889592708,-0.1681905044515144,0.4057419645062494,0.534687830391993,1.001490892067589,-0.2654158383484533,0.879517496283,0.4650661832636144,0.3676388920554865,0.06432126287072949,1.081410575513703,-0.1237255251094273,0.01731131609315088,0.478742783833627,1.235914538308887,-0.4046402676308744,-0.6437781205497312,0.05583664058097138,786.1172161172161,796.996336996337,804.6520146520147,798.6080586080586,809.4871794871796,728.0952380952381,-0.455139,-0.064697,0.851868,1.772003,-2.100983,-1.443024,1,2,1,1,2,93.000000
2024-12-21 15:52:37.212,0.631703621237782,0.5251427930304766,1.170073630868019,-0.1681905044515144,0.4057419645062494,0.4330160402627246,0.976498889927167,-0.2654158383484533,0.879517496283,0.4022729956293883,0.2159067210350049,0.06432126287072949,1.081410575513703,-0.1326178444656173,-0.005547646839564883,0.478742783833627,1.235914538308887,-0.2656085187447531,-0.6437217967347738,0.05583664058097138,675.3113553113553,839.3040293040293,812.7106227106227,612.8571428571429,726.8864468864469,552.4175824175825,-0.450500,0.077209,0.843384,2.190704,6.886139,-2.549591,1,2,1,1,2,93.000000
2024-12-21 15:52:37.370,,,,,,,,,,,,,,,,,,,,,,,,,,,,,,,,,,,,,,,/muse/elements/blink
2024-12-21 15:52:37.712,0.631703621237782,0.5729852733522771,0.862028614684019,-0.1681905044515144,0.4057419645062494,0.4171445967959747,0.4399989143188715,-0.2654158383484533,0.879517496283,0.2163563825652171,0.1656151621944751,0.06432126287072949,1.081410575513703,-0.08352422422165784,0.005826474212675432,0.478742783833627,1.235914538308887,-0.2145566487402036,-0.2122687769835083,0.05583664058097138,803.8461538461539,805.8608058608058,779.6703296703297,700.6959706959707,821.5750915750916,780.4761904761905,-0.450317,-0.002380,0.989319,2.549591,-1.943970,2.071075,1,2,1,1,2,93.000000
2024-12-21 15:52:37.781,,,,,,,,,,,,,,,,,,,,,,,,,,,,,,,,,,,,,,,/muse/elements/jaw_clench
2024-12-21 15:52:38.212,0.631703621237782,0.9166613304625617,0.862028614684019,-0.1681905044515144,0.4057419645062494,0.608306744971098,0.4399989143188715,-0.2654158383484533,0.879517496283,0.6943042772287198,0.1656151621944751,0.06432126287072949,1.081410575513703,-0.03590896784497847,0.005826474212675432,0.478742783833627,1.235914538308887,-0.04169022170322965,-0.2122687769835083,0.05583664058097138,763.956043956044,777.2527472527473,812.3076923076924,797.3992673992674,727.2893772893773,664.0293040293041,-0.414246,-0.047974,0.879089,1.958923,-2.041168,-6.026306,1,2,1,1,2,93.000000
2024-12-21 15:52:38.712,0.631703621237782,1.056446621407771,0.862028614684019,-0.1681905044515144,0.4057419645062494,0.7268132600851637,0.4399989143188715,-0.2654158383484533,0.879517496283,0.6943042772287198,0.1656151621944751,0.06432126287072949,1.081410575513703,-0.01024059673232106,0.005826474212675432,0.478742783833627,1.235914538308887,-0.01293502803208811,-0.2122687769835083,0.05583664058097138,836.0805860805862,801.025641025641,807.8754578754579,830.4395604395604,845.3479853479854,776.0439560439561,-0.439880,-0.012146,0.761902,-0.456085,-7.013245,-5.570221,1,2,1,1,2,93.000000
2024-12-21 15:52:39.214,0.631703621237782,1.056446621407771,0.2820731682628366,-0.1681905044515144,0.4057419645062494,0.7268132600851637,-0.2034509176011194,-0.2654158383484533,0.879517496283,0.6943042772287198,0.2755794044313138,0.06432126287072949,1.081410575513703,-0.01024059673232106,0.3627261972168078,0.478742783833627,1.235914538308887,-0.01293502803208811,0.2566064987929316,0.05583664058097138,795.3846153846154,845.3479853479854,812.3076923076924,689.8168498168499,971.0622710622711,1039.157509157509,-0.391052,-0.069397,0.880554,3.753357,-9.637604,4.874878,1,2,1,1,2,93.000000
2024-12-21 15:52:39.294,,,,,,,,,,,,,,,,,,,,,,,,,,,,,,,,,,,,,,,/muse/elements/blink
2024-12-21 15:52:39.720,0.631703621237782,1.056446621407771,0.5120905891730447,-0.1681905044515144,0.4057419645062494,0.7268132600851637,-0.02352678115552274,-0.2654158383484533,0.879517496283,0.6943042772287198,0.3618499884228855,0.06432126287072949,1.081410575513703,-0.01024059673232106,0.3449634156760737,0.478742783833627,1.235914538308887,-0.01293502803208811,0.2964851869668917,0.05583664058097138,826.007326007326,801.8315018315019,802.2344322344322,811.0989010989011,852.1978021978023,624.9450549450549,-0.588745,-0.056763,1.040161,-1.315918,6.871185,-3.828125,1,2,1,1,2,93.000000
2024-12-21 15:52:40.212,0.631703621237782,1.056446621407771,0.5120905891730447,-0.1681905044515144,0.4057419645062494,0.7268132600851637,-0.02352678115552274,-0.2654158383484533,0.879517496283,0.6943042772287198,0.3618499884228855,0.06432126287072949,1.081410575513703,-0.01024059673232106,0.3449634156760737,0.478742783833627,1.235914538308887,-0.01293502803208811,0.2964851869668917,0.05583664058097138,813.5164835164835,792.1611721611722,815.934065934066,825.6043956043957,850.1831501831502,790.952380952381,-0.454407,0.013306,0.838257,1.929016,2.160797,-0.029907,1,2,1,1,2,93.000000
2024-12-21 15:52:40.612,,,,,,,,,,,,,,,,,,,,,,,,,,,,,,,,,,,,,,,/muse/elements/jaw_clench
2024-12-21 15:52:40.713,0.631703621237782,1.056446621407771,0.557386155354164,-0.1681905044515144,0.4057419645062494,0.7268132600851637,0.04068074808415553,-0.2654158383484533,0.879517496283,0.6943042772287198,0.3492490458982269,0.06432126287072949,1.081410575513703,-0.01024059673232106,0.3376259609504509,0.478742783833627,1.235914538308887,-0.01293502803208811,0.3125795616178222,0.05583664058097138,738.974358974359,779.6703296703297,821.978021978022,801.4285714285714,861.0622710622711,763.5531135531136,-0.447754,-0.051514,0.844971,-2.773895,-2.908478,3.177643,1,2,1,1,2,93.000000
2024-12-21 15:52:40.853,,,,,,,,,,,,,,,,,,,,,,,,,,,,,,,,,,,,,,,/muse/elements/jaw_clench
2024-12-21 15:52:41.030,,,,,,,,,,,,,,,,,,,,,,,,,,,,,,,,,,,,,,,/muse/elements/blink
2024-12-21 15:52:41.213,0.631703621237782,0.08808981519463718,0.557386155354164,-0.1681905044515144,0.4057419645062494,0.1227193352785491,0.04068074808415553,-0.2654158383484533,0.879517496283,-0.003892529247079687,0.3492490458982269,0.06432126287072949,1.081410575513703,0.1365314280557137,0.3376259609504509,0.478742783833627,1.235914538308887,0.1717338689794393,0.3125795616178222,0.05583664058097138,894.1025641025641,767.985347985348,811.5018315018315,845.7509157509157,557.6556776556777,216.7765567765568,-0.602844,0.005005,1.140747,-3.843079,8.306732,-4.643097,1,2,1,1,2,93.000000
2024-12-21 15:52:41.532,,,,,,,,,,,,,,,,,,,,,,,,,,,,,,,,,,,,,,,/muse/elements/blink
2024-12-21 15:52:41.532,,,,,,,,,,,,,,,,,,,,,,,,,,,,,,,,,,,,,,,/muse/elements/jaw_clench
2024-12-21 15:52:41.716,0.631703621237782,0.08808981519463718,0.557386155354164,-0.1681905044515144,0.4057419645062494,0.1227193352785491,0.04068074808415553,-0.2654158383484533,0.879517496283,-0.003892529247079687,0.3492490458982269,0.06432126287072949,1.081410575513703,0.1365314280557137,0.3376259609504509,0.478742783833627,1.235914538308887,0.1717338689794393,0.3125795616178222,0.05583664058097138,847.3626373626374,796.1904761904763,799.4139194139194,818.7545787545788,872.7472527472528,1007.728937728938,-0.495911,-0.001831,0.825867,-0.568237,-2.736511,-0.014954,1,2,1,1,2,93.000000
2024-12-21 15:52:42.214,0.631703621237782,0.08304820487983156,0.557386155354164,-0.1681905044515144,0.4057419645062494,0.163084927973317,0.04068074808415553,-0.2654158383484533,0.879517496283,-0.06297199516863473,0.3492490458982269,0.06432126287072949,1.081410575513703,0.1707040066460456,0.3376259609504509,0.478742783833627,1.235914538308887,0.2408199394565666,0.3125795616178222,0.05583664058097138,749.4505494505495,815.5311355311355,790.5494505494506,785.3113553113553,826.4102564102565,737.7655677655678,-0.436218,-0.024902,0.819153,-1.786957,-3.409424,3.521576,1,2,1,1,2,93.000000
2024-12-21 15:52:42.713,0.631703621237782,0.0624071900823942,0.557386155354164,-0.1681905044515144,0.4057419645062494,0.1910711402422871,0.04068074808415553,-0.2654158383484533,0.879517496283,-0.0940296370959062,0.3492490458982269,0.06432126287072949,1.081410575513703,0.1987095726852766,0.3376259609504509,0.478742783833627,1.235914538308887,0.2837250025124524,0.3125795616178222,0.05583664058097138,794.5787545787546,803.8461538461539,796.5934065934066,799.4139194139194,857.4358974358975,973.8827838827839,-0.372253,0.079163,0.738953,-0.874786,-1.428070,1.069183,1,2,1,1,2,93.000000
2024-12-21 15:52:43.213,0.631703621237782,0.0624071900823942,-0.1595264370997306,0.1905759283844749,0.4057419645062494,0.1910711402422871,-0.1532978638863013,-0.0003802049803276004,0.879517496283,-0.0940296370959062,0.1715419558835542,-0.08088151674996752,1.081410575513703,0.1987095726852766,-0.1583959678691836,0.5149540256570334,1.235914538308887,0.2837250025124524,-0.3562368467591255,0.4274955860494404,796.1904761904763,799.0109890109891,800.2197802197802,789.7435897435897,831.2454212454213,789.3406593406594,-0.431091,0.059326,0.887756,2.048645,-5.330963,0.179443,1,2,1,1,2,93.000000
2024-12-21 15:52:43.714,0.631703621237782,-0.457136267300726,-0.1847252891673393,0.3639691428369369,0.4057419645062494,-0.4845725414128062,-0.05563828411054002,0.09017198389573867,0.879517496283,-0.2241990388580134,0.2928530359271206,-0.01590011128887167,1.081410575513703,-0.06684356591731114,-0.213178354074576,0.4756453518538198,1.235914538308887,-0.2638847774232231,-0.4373727308422593,0.3878285203464724,797.3992673992674,808.6813186813187,800.6227106227107,763.5531135531136,722.8571428571429,642.6739926739926,-0.401489,-0.008789,0.856628,4.695435,-6.467438,1.368256,1,1,1,1,1,93.000000
2024-12-21 15:52:44.168,,,,,,,,,,,,,,,,,,,,,,,,,,,,,,,,,,,,,,,/muse/elements/jaw_clench
2024-12-21 15:52:44.213,0.631703621237782,-0.3730654841093745,-0.1915483358975788,0.3639691428369369,0.4057419645062494,0.05321707905189937,0.04446772827095401,0.09017198389573867,0.879517496283,-0.1264622733653633,0.2928530359271206,-0.01590011128887167,1.081410575513703,-0.01332277096638107,-0.2674659738809769,0.4756453518538198,1.235914538308887,-0.2055200202648076,-0.5253446656634335,0.3878285203464724,790.5494505494506,811.0989010989011,784.5054945054945,853.4065934065934,772.4175824175825,760.7326007326008,-0.415405,0.031738,0.883362,-9.697418,-4.216919,-2.340240,1,1,1,1,1,93.000000
2024-12-21 15:52:44.501,,,,,,,,,,,,,,,,,,,,,,,,,,,,,,,,,,,,,,,/muse/elements/jaw_clench
2024-12-21 15:52:44.713,0.631703621237782,-0.0122440321162536,-0.1792053816404081,0.465490432217633,0.4057419645062494,0.1306127246301591,0.1525455270673458,0.1510819528899814,0.879517496283,0.004929418608501046,0.282675456717024,-0.1173652432157187,1.081410575513703,0.1703310472032911,-0.3049119850132865,0.4414172671292673,1.235914538308887,-0.01188337898621221,-0.5925272200735726,0.3532605489996509,855.0183150183151,788.1318681318681,805.8608058608058,778.0586080586081,775.2380952380953,720.0366300366301,-0.480408,-0.009399,0.958618,2.594452,6.370239,1.801910,1,1,1,1,1,93.000000
2024-12-21 15:52:45.215,0.631703621237782,0.1970757018166396,-0.1658508566601181,0.4916889152922563,0.4057419645062494,0.1941162098471223,0.2363716617303067,0.1572086862490367,0.879517496283,0.02962435773276714,-0.3004004132218762,-0.1695546652086741,1.081410575513703,0.481469048225846,-0.3418394327575499,0.3995412264179892,1.235914538308887,0.3668863571271149,-0.6194260437229423,0.3335558410109544,834.8717948717949,803.8461538461539,803.040293040293,791.7582417582418,846.959706959707,749.047619047619,-0.455811,-0.054382,0.787170,0.874786,0.874786,-1.338348,1,1,1,1,1,93.000000
2024-12-21 15:52:45.294,,,,,,,,,,,,,,,,,,,,,,,,,,,,,,,,,,,,,,,/muse/elements/blink
2024-12-21 15:52:45.719,0.631703621237782,0.3615746808506405,0.1754317730987433,0.4916889152922563,0.4057419645062494,0.0515565209764503,0.2824925064821489,0.1572086862490367,0.879517496283,0.06220690360701314,0.1151183356037352,-0.1695546652086741,1.081410575513703,0.5964233664308047,0.1843238480870158,0.3995412264179892,1.235914538308887,0.6087312237420009,0.5629040540891229,0.3335558410109544,804.2490842490843,799.8168498168499,813.5164835164835,821.5750915750916,839.3040293040293,813.5164835164835,-0.422913,0.073242,0.812927,-0.934601,4.912262,-8.792725,1,1,1,1,1,93.000000
2024-12-21 15:52:46.212,0.631703621237782,0.3569577351328706,0.4169293465523568,0.4916889152922563,0.4057419645062494,-0.15876410292878,0.2452483813694041,0.1572086862490367,0.879517496283,0.09418532172494005,0.1737736222631559,-0.1695546652086741,1.081410575513703,0.5510798711803052,0.2357046232929896,0.3995412264179892,1.235914538308887,0.5846114195437709,0.5265244604459759,0.3335558410109544,814.7252747252747,803.4432234432235,795.3846153846154,805.8608058608058,904.1758241758242,842.9304029304029,-0.382751,-0.114380,0.828918,5.547791,11.267548,2.228088,1,1,1,1,1,93.000000
2024-12-21 15:52:46.715,0.631703621237782,0.3105244938927234,0.570040240923037,0.4916889152922563,0.4057419645062494,-0.409324035827178,0.1793823576598487,0.1572086862490367,0.879517496283,0.0540580494774482,0.1990140445571276,-0.1695546652086741,1.081410575513703,0.2876753998859246,0.1673168045045793,0.3995412264179892,1.235914538308887,0.3722700181143043,0.3322893325962601,0.3335558410109544,777.6556776556777,792.5641025641025,796.996336996337,800.2197802197802,896.9230769230769,940.8424908424909,-0.497070,-0.037842,1.131531,-2.130890,9.712372,-12.441406,1,2,1,1,2,93.000000
2024-12-21 15:52:47.136,,,,,,,,,,,,,,,,,,,,,,,,,,,,,,,,,,,,,,,/muse/elements/blink
2024-12-21 15:52:47.213,0.631703621237782,0.253241795058963,0.5956862933900402,0.4916889152922563,0.4057419645062494,-0.3976420652434345,0.1371480229184248,0.1572086862490367,0.879517496283,0.008337038663479486,0.1547126644874331,-0.1695546652086741,1.081410575513703,0.008126634705143279,0.1037062079639886,0.3995412264179892,1.235914538308887,-0.2294134230693441,0.1249448005535366,0.3335558410109544,842.1245421245421,809.0842490842491,800.6227106227107,820.3663003663004,671.6849816849817,690.6227106227107,-0.437805,0.159241,0.870911,-5.390778,3.028107,7.618866,1,2,1,1,2,93.000000
2024-12-21 15:52:47.717,0.631703621237782,0.3601330424511734,1.032281010707288,0.4916889152922563,0.4057419645062494,-0.1808254480896213,0.6927593163819803,0.1572086862490367,0.879517496283,0.2364369330233997,0.4412912972340058,-0.1695546652086741,1.081410575513703,0.02982755239221094,-0.04115814912519455,0.3995412264179892,1.235914538308887,-0.409244822610007,-0.2671878353816414,0.3335558410109544,790.1465201465202,788.1318681318681,796.5934065934066,806.2637362637363,792.967032967033,686.1904761904763,-0.411804,-0.114075,0.898438,-8.134766,-9.031982,-2.594452,1,2,1,1,2,93.000000
2024-12-21 15:52:48.213,0.631703621237782,0.5325125987557152,1.0734695465204,0.4916889152922563,0.4057419645062494,0.1158842258930037,0.7696933329409308,0.1572086862490367,0.879517496283,0.4653322679841442,0.446035706999961,-0.1695546652086741,1.081410575513703,0.08515999198506617,-0.1380503074814481,0.3995412264179892,1.235914538308887,-0.3969747884015755,-0.380261189364746,0.3335558410109544,847.3626373626374,813.919413919414,784.5054945054945,811.9047619047619,741.7948717948718,709.5604395604396,-0.504639,-0.109009,0.961426,0.433655,-5.323486,-1.009369,1,2,1,1,2,93.000000
2024-12-21 15:52:48.713,0.631703621237782,0.8450679958410608,1.142538040975162,0.4916889152922563,0.4057419645062494,0.3817622074559663,0.8407334454140332,0.1572086862490367,0.879517496283,0.5812979819962525,0.4669639306129451,-0.1695546652086741,1.081410575513703,0.1234771672657821,0.1019612655440815,0.3995412264179892,1.235914538308887,-0.3511199974061799,-0.05206491857006618,0.3335558410109544,786.9230769230769,795.3846153846154,796.1904761904763,756.3003663003664,718.8278388278388,859.047619047619,-0.438538,-0.033875,1.016357,0.164490,12.232056,-3.551483,1,2,1,1,2,93.000000
2024-12-21 15:52:49.037,,,,,,,,,,,,,,,,,,,,,,,,,,,,,,,,,,,,,,,/muse/elements/blink
2024-12-21 15:52:49.213,0.631703621237782,0.8449815013996544,0.9224830120055041,0.4916889152922563,0.4057419645062494,0.3910354468099862,0.6214360324625751,0.1572086862490367,0.879517496283,0.5543400548034412,0.3253843176875355,-0.1695546652086741,1.081410575513703,0.105818379456063,0.1651693387317974,0.3995412264179892,1.235914538308887,-0.2266879619224713,0.1001426644943228,0.3335558410109544,784.5054945054945,799.8168498168499,799.4139194139194,804.6520146520147,794.981684981685,722.0512820512821,-0.321777,0.068970,0.878967,-0.665436,-5.951538,6.549683,1,2,1,1,2,93.000000
2024-12-21 15:52:49.713,0.631703621237782,0.9365206341528796,0.9359003788820837,0.4916889152922563,0.4057419645062494,0.5157315212600906,0.6958218248466916,0.1572086862490367,0.879517496283,0.5679867005432866,0.3222998754567451,-0.1695546652086741,1.081410575513703,0.03415612784654363,0.2872170850415672,0.3995412264179892,1.235914538308887,-0.2229262863639208,0.2746644299670581,0.3335558410109544,811.9047619047619,807.4725274725275,807.4725274725275,812.3076923076924,888.0586080586081,771.2087912087912,-0.490723,-0.032532,0.818359,-2.579498,0.897217,-2.033691,1,2,1,1,2,93.000000
2024-12-21 15:52:50.070,,,,,,,,,,,,,,,,,,,,,,,,,,,,,,,,,,,,,,,/muse/elements/blink
2024-12-21 15:52:50.213,0.631703621237782,0.8037865139762456,0.8301331066195425,0.4916889152922563,0.4057419645062494,0.4439311124131673,0.6722278120876748,0.1572086862490367,0.879517496283,0.3039958500878395,0.2752828791520563,-0.1695546652086741,1.081410575513703,-0.01952505940484465,0.3184622170526978,0.3995412264179892,1.235914538308887,-0.2241431326678957,0.4019326142389191,0.3335558410109544,786.9230769230769,785.3113553113553,810.2930402930403,840.5128205128206,755.0915750915751,477.8754578754579,-0.507629,0.030762,0.904724,4.194489,-3.058014,-3.207550,1,2,1,1,2,93.000000
2024-12-21 15:52:50.713,0.631703621237782,0.965412895544157,0.8301331066195425,0.4916889152922563,0.4057419645062494,0.657499480489675,0.6722278120876748,0.1572086862490367,0.879517496283,0.07790660193659359,0.2752828791520563,-0.1695546652086741,1.081410575513703,-0.0600456938766153,0.3184622170526978,0.3995412264179892,1.235914538308887,-0.339767722714877,0.4019326142389191,0.3335558410109544,734.5421245421246,786.1172161172161,800.6227106227107,803.040293040293,709.5604395604396,519.7802197802198,-0.566589,-0.069397,1.078613,2.968292,13.906860,2.429962,1,2,1,1,2,93.000000
2024-12-21 15:52:51.207,,,,,,,,,,,,,,,,,,,,,,,,,,,,,,,,,,,,,,,/muse/elements/jaw_clench
2024-12-21 15:52:51.218,0.631703621237782,1.016901159587437,0.8301331066195425,0.4916889152922563,0.4057419645062494,0.6939019273316916,0.6722278120876748,0.1572086862490367,0.879517496283,0.04706388696396427,0.2752828791520563,-0.1695546652086741,1.081410575513703,-0.0777311638039655,0.3184622170526978,0.3995412264179892,1.235914538308887,-0.4082434551837769,0.4019326142389191,0.3335558410109544,761.1355311355312,815.1282051282052,786.1172161172161,789.7435897435897,766.3736263736264,849.3772893772895,-0.447205,-0.072388,0.958679,5.024414,-3.521576,-4.082336,1,2,1,1,2,93.000000
2024-12-21 15:52:51.582,,,,,,,,,,,,,,,,,,,,,,,,,,,,,,,,,,,,,,,/muse/elements/jaw_clench
2024-12-21 15:52:51.713,0.631703621237782,1.016901159587437,0.6048490572169384,0.4916889152922563,0.4057419645062494,0.6939019273316916,-0.07660692409786661,0.1572086862490367,0.879517496283,0.04706388696396427,0.04282708637419079,-0.1695546652086741,1.081410575513703,-0.0777311638039655,0.07720780162957962,0.3995412264179892,1.235914538308887,-0.4082434551837769,0.1506949568375624,0.3335558410109544,846.1538461538462,806.2637362637363,801.8315018315019,971.4652014652015,863.4798534798535,786.9230769230769,-0.439270,0.000366,0.846130,1.457977,-4.067383,-2.542114,1,2,1,1,2,93.000000
2024-12-21 15:52:51.802,,,,,,,,,,,,,,,,,,,,,,,,,,,,,,,,,,,,,,,/muse/elements/blink
2024-12-21 15:52:52.213,0.631703621237782,1.016901159587437,0.6048490572169384,0.4916889152922563,0.4057419645062494,0.6939019273316916,-0.07660692409786661,0.1572086862490367,0.879517496283,0.04706388696396427,0.04282708637419079,-0.1695546652086741,1.081410575513703,-0.0777311638039655,0.07720780162957962,0.3995412264179892,1.235914538308887,-0.4082434551837769,0.1506949568375624,0.3335558410109544,797.3992673992674,804.2490842490843,796.1904761904763,804.2490842490843,811.0989010989011,804.2490842490843,-0.443054,-0.027405,0.893982,5.831909,-5.876770,2.616882,1,2,1,1,2,93.000000
2024-12-21 15:52:52.696,,,,,,,,,,,,,,,,,,,,,,,,,,,,,,,,,,,,,,,/muse/elements/blink
2024-12-21 15:52:52.713,0.631703621237782,1.016901159587437,0.5595502798621995,0.4916889152922563,0.4057419645062494,0.6939019273316916,-0.1331503160249441,0.1572086862490367,0.879517496283,0.04706388696396427,-0.0328234008244441,-0.1695546652086741,1.081410575513703,-0.0777311638039655,0.09332024330558711,0.3995412264179892,1.235914538308887,-0.4082434551837769,0.1723445397932137,0.3335558410109544,795.3846153846154,772.8205128205128,794.5787545787546,826.007326007326,616.4835164835165,324.7619047619048,-0.589966,-0.001099,1.185364,-5.091705,4.172058,-8.545990,1,2,1,1,2,93.000000
2024-12-21 15:52:53.213,0.631703621237782,1.016901159587437,0.5084333663580243,0.4916889152922563,0.4057419645062494,0.6939019273316916,-0.2080311949075312,0.1572086862490367,0.879517496283,0.04706388696396427,-0.07632604960315734,-0.1695546652086741,1.081410575513703,-0.0777311638039655,0.1062696578177951,0.3995412264179892,1.235914538308887,-0.4082434551837769,0.1931988614197411,0.3335558410109544,812.7106227106227,798.6080586080586,802.2344322344322,796.1904761904763,834.0659340659341,695.8608058608058,-0.467651,0.054688,0.848633,3.252411,-8.553467,-1.405640,1,2,1,1,2,93.000000
2024-12-21 15:52:53.713,0.631703621237782,1.016901159587437,0.5084333663580243,0.4916889152922563,0.4057419645062494,0.6939019273316916,-0.2080311949075312,0.1572086862490367,0.879517496283,0.04706388696396427,-0.07632604960315734,-0.1695546652086741,1.081410575513703,-0.0777311638039655,0.1062696578177951,0.3995412264179892,1.235914538308887,-0.4082434551837769,0.1931988614197411,0.3335558410109544,808.6813186813187,812.3076923076924,795.7875457875458,818.7545787545788,757.5091575091575,673.2967032967033,-0.468323,-0.021301,0.829163,1.173859,-0.979462,1.061707,1,2,1,1,2,93.000000
2024-12-21 15:52:53.900,,,,,,,,,,,,,,,,,,,,,,,,,,,,,,,,,,,,,,,/muse/elements/blink
2024-12-21 15:52:53.947,,,,,,,,,,,,,,,,,,,,,,,,,,,,,,,,,,,,,,,/muse/elements/jaw_clench
2024-12-21 15:52:54.144,,,,,,,,,,,,,,,,,,,,,,,,,,,,,,,,,,,,,,,/muse/elements/blink
2024-12-21 15:52:54.213,0.631703621237782,0.01262458445026697,-0.1171972078753513,0.4916889152922563,0.4057419645062494,-0.3385519283902233,-0.08865998066617437,0.1572086862490367,0.879517496283,0.1536444078753248,-0.2004606948716489,-0.1695546652086741,1.081410575513703,0.1745402418522577,0.3873313612538645,0.3995412264179892,1.235914538308887,-0.241259031673505,0.07350585293901978,0.3335558410109544,830.8424908424909,804.6520146520147,827.6190476190476,953.7362637362637,823.5897435897436,737.7655677655678,-0.515747,0.024170,0.908691,-2.788849,-3.072968,-2.706604,1,2,1,1,2,93.000000
2024-12-21 15:52:54.699,,,,,,,,,,,,,,,,,,,,,,,,,,,,,,,,,,,,,,,/muse/elements/blink
2024-12-21 15:52:54.713,0.631703621237782,0.5237283604916824,0.2263529537578548,0.4916889152922563,0.4057419645062494,-0.2084773898192228,0.09034131231797586,0.1572086862490367,0.879517496283,0.1743762445503657,0.4114728875021019,-0.1695546652086741,1.081410575513703,0.3529814654693033,0.5847617613774041,0.3995412264179892,1.235914538308887,-0.06499137486637019,0.2478787858698484,0.3335558410109544,827.2161172161173,787.3260073260074,790.1465201465202,815.5311355311355,650.3296703296703,296.1538461538462,-0.591187,-0.046143,1.116943,4.246826,-6.198273,3.611298,1,2,1,1,2,93.000000
2024-12-21 15:52:55.213,0.631703621237782,0.6016049142270514,0.2263529537578548,0.4916889152922563,0.4057419645062494,-0.1962080240973628,0.09034131231797586,0.1572086862490367,0.879517496283,0.1743762445503657,0.4114728875021019,-0.1695546652086741,1.081410575513703,0.4166230048121806,0.5847617613774041,0.3995412264179892,1.235914538308887,-0.01690590395789833,0.2478787858698484,0.3335558410109544,777.2527472527473,796.996336996337,805.4578754578755,796.1904761904763,814.7252747252747,686.1904761904763,-0.471741,-0.054016,0.779175,0.635529,-3.506622,-3.357086,1,2,1,1,2,93.000000
2024-12-21 15:52:55.713,0.631703621237782,0.7874832156159618,0.3981674995910733,0.4916889152922563,0.4057419645062494,0.1811322871355959,0.2389431153870102,0.1572086862490367,0.879517496283,0.136203965003499,0.4114728875021019,-0.1695546652086741,1.081410575513703,0.3474537779547783,0.7518054662841885,0.3995412264179892,1.235914538308887,-0.03543664624273793,0.4177626357184923,0.3335558410109544,799.4139194139194,816.7399267399268,790.5494505494506,794.1758241758242,749.047619047619,751.8681318681319,-0.449524,0.061523,0.714783,-2.841187,-2.968292,-3.828125,1,2,1,1,2,93.000000
2024-12-21 15:52:56.216,0.631703621237782,0.4072373170673144,0.3677115805775937,0.4916889152922563,0.4057419645062494,0.2149314250619441,-0.1604427284888555,0.1572086862490367,0.879517496283,0.07609888591953505,0.02488835082444675,-0.1695546652086741,1.081410575513703,-0.2030207330123226,0.06148661240421752,0.3995412264179892,1.235914538308887,-0.5255144006282658,-0.03456469124761583,0.3335558410109544,792.1611721611722,799.0109890109891,799.8168498168499,796.5934065934066,848.5714285714286,806.6666666666667,-0.469604,-0.040283,0.858887,3.536530,-2.422485,5.293579,1,2,1,1,2,93.000000
2024-12-21 15:52:56.713,0.631703621237782,0.5829662252096617,0.4545483700452482,0.4916889152922563,0.4057419645062494,0.4430933110583338,0.06639409616190149,0.1572086862490367,0.879517496283,0.2692922508084507,0.4586291758533422,-0.1695546652086741,1.081410575513703,-0.06041659575530131,0.0541451611648252,0.3995412264179892,1.235914538308887,-0.4350117535030666,-0.1879604093178716,0.3335558410109544,828.8278388278388,801.025641025641,798.6080586080586,792.967032967033,660,379.5604395604396,-0.583862,-0.035339,1.205078,-1.143951,-16.643372,-2.385101,1,2,1,1,2,93.000000
2024-12-21 15:52:57.213,0.631703621237782,0.6207081502449182,0.5301448301408693,1.071152082922185,0.4057419645062494,0.4592785548029579,0.275044353073316,0.5477609594134929,0.879517496283,0.2942024326224376,0.5437970565025005,0.786071841516797,1.081410575513703,-0.004880876061142644,0.05418729100486464,1.297577772835807,1.235914538308887,-0.4334862905989824,-0.2250034471083834,0.7548434845528372,805.4578754578755,802.2344322344322,803.040293040293,801.025641025641,752.2710622710623,718.021978021978,-0.450500,0.066284,0.796082,-1.614990,-1.061707,2.422485,1,2,1,1,2,93.000000
2024-12-21 15:52:57.722,0.592028014040729,0.663939880638192,0.5862100901570911,0.8359220132127432,0.677358272975449,0.4483772940622272,0.3074078352156305,0.3436562543924888,0.4293672257177042,0.2942024326224376,0.5465842450452771,0.7915528889859653,0.7931527272832594,-0.04236942479382094,-0.05552693168655898,0.9973316380980728,0.8261154215085045,-0.3718217472510381,-0.3445605626333653,0.5441455188918434,777.6556776556777,801.8315018315019,827.2161172161173,736.959706959707,770.4029304029305,653.1501831501831,-0.471069,-0.015320,0.745117,3.334656,-2.497253,-1.248627,1,1,1,1,1,93.000000
2024-12-21 15:52:58.041,,,,,,,,,,,,,,,,,,,,,,,,,,,,,,,,,,,,,,,/muse/elements/blink
2024-12-21 15:52:58.214,0.592028014040729,0.6294597792096629,0.6594519098025234,0.8359220132127432,0.677358272975449,0.3746209333406933,0.3459180888643676,0.3436562543924888,0.4293672257177042,0.6144404681055855,0.4870192824738496,0.7915528889859653,0.7931527272832594,-0.1291386696070771,-0.1526245289893529,0.9973316380980728,0.8261154215085045,-0.3693939436295997,-0.3469983894055172,0.5441455188918434,815.5311355311355,838.901098901099,725.6776556776557,662.8205128205128,805.8608058608058,1027.472527472527,-0.409607,0.131714,0.772766,4.478607,-0.059814,2.018738,1,1,1,1,1,93.000000
2024-12-21 15:52:58.714,0.592028014040729,0.875608903928727,0.6518492237649618,0.5525825932895694,0.677358272975449,0.600992650183103,0.1952587547227324,0.1218346636890562,0.4293672257177042,0.699707869089473,0.3344150442116096,0.6642022709531415,0.7931527272832594,-0.1229670297536057,-0.2900527991727514,0.523331755272182,0.8261154215085045,-0.3028768675343452,-0.3527375054123431,0.3103507647744889,791.3553113553114,792.1611721611722,816.3369963369963,817.1428571428571,667.2527472527473,693.8461538461538,-0.430237,0.060852,0.941284,-1.435547,-2.385101,4.792633,1,1,1,1,1,93.000000
2024-12-21 15:52:59.214,0.592028014040729,1.04308451782174,0.6917893083153001,0.1669518261273777,0.677358272975449,0.7150863670175536,0.2581098929885661,-0.2209731185516365,0.4293672257177042,0.719502543837051,-0.5318420206089121,0.3683301047635015,0.7931527272832594,0.01491545588682871,-0.3134624754502099,0.4072048272261966,0.8261154215085045,-0.1878477007532612,-0.4469073056451566,0.1552179994338115,732.9304029304029,796.5934065934066,785.3113553113553,551.2087912087912,705.934065934066,670.4761904761905,-0.497192,-0.029602,0.816467,1.958923,-0.628052,-4.015045,1,1,1,1,1,93.000000
2024-12-21 15:52:59.468,,,,,,,,,,,,,,,,,,,,,,,,,,,,,,,,,,,,,,,/muse/elements/blink
2024-12-21 15:52:59.718,0.592028014040729,1.199781763162386,0.6917893083153001,0.1669518261273777,0.677358272975449,0.8514835305530941,0.2581098929885661,-0.2209731185516365,0.4293672257177042,0.719502543837051,-0.5318420206089121,0.3683301047635015,0.7931527272832594,0.1022218116010586,-0.3134624754502099,0.4072048272261966,0.8261154215085045,-0.139958080761258,-0.4469073056451566,0.1552179994338115,804.2490842490843,790.5494505494506,798.6080586080586,786.9230769230769,751.4652014652015,647.5091575091575,-0.440308,0.061768,0.818115,8.127289,-7.925415,-0.882263,1,1,1,1,1,93.000000
2024-12-21 15:52:59.821,,,,,,,,,,,,,,,,,,,,,,,,,,,,,,,,,,,,,,,/muse/elements/jaw_clench
2024-12-21 15:53:00.214,0.592028014040729,1.175319136837901,1.22053618444014,0.1669518261273777,0.677358272975449,0.7067786392918958,0.7908465277466949,-0.2209731185516365,0.4293672257177042,0.5813932339994343,0.6739831837892394,0.3683301047635015,0.7931527272832594,0.1659274621572164,0.4742176819410366,0.4072048272261966,0.8261154215085045,-0.03972171105904239,0.3843657794087915,0.1552179994338115,757.5091575091575,820.7692307692308,842.5274725274726,667.2527472527473,853.4065934065934,958.1684981684982,-0.597656,0.020630,1.140564,-2.325287,13.338623,3.476715,1,1,1,1,1,93.000000
2024-12-21 15:53:00.459,,,,,,,,,,,,,,,,,,,,,,,,,,,,,,,,,,,,,,,/muse/elements/blink
2024-12-21 15:53:00.714,0.592028014040729,1.175319136837901,1.22053618444014,0.1669518261273777,0.677358272975449,0.7067786392918958,0.7908465277466949,-0.2209731185516365,0.4293672257177042,0.5813932339994343,0.6739831837892394,0.3683301047635015,0.7931527272832594,0.1659274621572164,0.4742176819410366,0.4072048272261966,0.8261154215085045,-0.03972171105904239,0.3843657794087915,0.1552179994338115,780.8791208791209,806.2637362637363,799.0109890109891,793.3699633699634,768.3882783882784,885.2380952380953,-0.432739,-0.021729,0.941162,-1.443024,0.403748,0.463562,1,2,1,1,2,93.000000
2024-12-21 15:53:01.213,0.592028014040729,1.175319136837901,1.219148619469043,0.1669518261273777,0.677358272975449,0.7067786392918958,0.7662546260797574,-0.2209731185516365,0.4293672257177042,0.5813932339994343,0.6672748867771725,0.3683301047635015,0.7931527272832594,0.1659274621572164,0.5224737163368965,0.4072048272261966,0.8261154215085045,-0.03972171105904239,0.4505469461646003,0.1552179994338115,772.8205128205128,797.3992673992674,806.6666666666667,834.4688644688645,799.0109890109891,752.2710622710623,-0.473511,0.013672,0.779602,-1.405640,-11.850739,-1.286011,1,2,1,1,2,93.000000
2024-12-21 15:53:01.717,0.592028014040729,0.1335014432249195,1.219148619469043,0.1669518261273777,0.677358272975449,0.08772617791403194,0.7662546260797574,-0.2209731185516365,0.4293672257177042,0.002816652735349035,0.6672748867771725,0.3683301047635015,0.7931527272832594,-0.05856062132932656,0.5224737163368965,0.4072048272261966,0.8261154215085045,-0.1548533320908554,0.4505469461646003,0.1552179994338115,799.0109890109891,806.2637362637363,808.2783882783883,801.025641025641,896.9230769230769,915.8608058608058,-0.440674,-0.007935,0.839600,1.906586,-16.052704,6.572113,1,2,1,1,2,93.000000
2024-12-21 15:53:02.214,0.592028014040729,0.04692013996204044,0.1796252503869634,0.1669518261273777,0.677358272975449,-0.009093614952357431,-0.2384291269154311,-0.2209731185516365,0.4293672257177042,0.0771710249381188,0.3253332617313415,0.3683301047635015,0.7931527272832594,-0.02346459516098225,-0.07446575155942359,0.4072048272261966,0.8261154215085045,-0.2413673174518819,-0.386696113399472,0.1552179994338115,819.5604395604396,792.1611721611722,801.4285714285714,773.6263736263736,776.0439560439561,785.3113553113553,-0.341492,0.088379,0.889648,0.254211,12.628326,-0.284119,1,2,1,1,2,93.000000
2024-12-21 15:53:02.714,0.592028014040729,0.1406883682022528,0.1239805055179666,0.1669518261273777,0.677358272975449,0.04836037724325338,-0.09927457464286474,-0.2209731185516365,0.4293672257177042,0.1247241071529789,0.3593288891223898,0.3683301047635015,0.7931527272832594,0.004608604152202252,-0.1319275062027855,0.4072048272261966,0.8261154215085045,-0.2925474681700414,-0.3604514755306574,0.1552179994338115,796.5934065934066,799.0109890109891,805.4578754578755,823.1868131868132,707.1428571428571,618.4981684981685,-0.465637,0.039673,0.914978,-1.988831,0.628052,1.308441,1,2,1,1,2,93.000000
2024-12-21 15:53:03.218,1.017644455647327,0.1966667832950507,0.1735024539141655,0.1669518261273777,0.8564722926415407,0.05931519193698098,0.008651448347833001,-0.2209731185516365,1.17505817230198,-0.0004791619210426265,0.4585280771391146,0.3683301047635015,0.9641403305494107,0.04989273620692813,-0.04057164868937171,0.4072048272261966,0.498407110411144,-0.3913754522585948,-0.2117704240532644,0.1552179994338115,769.5970695970697,789.7435897435897,799.4139194139194,797.3992673992674,810.6959706959707,741.3919413919414,-0.465088,-0.020264,0.802612,3.446808,-2.108459,5.390778,1,1,1,1,1,93.000000
2024-12-21 15:53:03.713,0.9290420023798429,0.1556541123951739,0.1775097166804095,0.1669518261273777,0.9988550604231821,0.1020816240529077,-0.04158425048933888,-0.2209731185516365,1.311788318495015,0.1214799160554705,0.3806953742257806,0.3683301047635015,0.9039033391714939,0.08457929819019588,-0.05377565011630689,0.4072048272261966,0.6336213117413561,-0.3340430055735978,-0.1938656933857944,0.1552179994338115,793.7728937728938,803.8461538461539,808.6813186813187,799.4139194139194,790.5494505494506,679.7435897435897,-0.458618,0.086975,0.856445,-0.388794,-7.372131,7.282410,1,1,1,1,1,93.000000
2024-12-21 15:53:04.213,0.8607842983408323,0.1640171589464609,0.7191989030260494,0.1669518261273777,0.9253006026198694,0.09045689762572413,0.07531319449769036,-0.2209731185516365,1.311831669656917,0.2601999590223952,0.4187723797270204,0.3683301047635015,0.9049751814164742,0.08367413879178238,0.03496361558237085,0.4072048272261966,0.7167107520364365,-0.2999299396276409,-0.1944735352956939,0.1552179994338115,856.6300366300367,811.9047619047619,802.6373626373627,803.4432234432235,963.4065934065934,941.2454212454213,-0.486023,-0.089905,0.929321,-10.744171,2.594452,-7.289886,1,1,1,1,1,93.000000
2024-12-21 15:53:04.715,1.108239331624797,0.3735993049652533,0.9503336547220497,0.6046992512103472,0.9536301639438785,0.2633296576020461,0.1980482573261522,0.08637366563379201,1.474593838106457,0.351231447655851,0.3920829506781778,0.1265345047038686,0.9991116019072221,0.02721774394053435,-0.03290284364343073,0.3564406647600458,0.780450521470835,-0.2587967453797148,-0.336163771600575,0.262710099432297,797.8021978021978,794.981684981685,799.0109890109891,795.3846153846154,723.6630036630037,480.6959706959707,-0.431458,-0.032471,1.070374,-0.837402,-5.487976,-7.529144,1,1,1,1,1,93.000000
2024-12-21 15:53:05.221,1.315311497968936,0.573543426680387,1.035580665564089,0.4960749435084829,0.8497541939545958,0.3326529491925571,0.2711678557192944,0.3474605591462859,1.315750097984376,0.3568100470670549,0.3318576015692978,0.3990498546847492,1.154929918664076,-0.02717297911171589,0.02011787339100835,0.3725154481153372,0.7934126766635992,-0.3615085536264958,-0.2956283166187552,0.2370093222916073,769.5970695970697,797.3992673992674,801.025641025641,798.2051282051282,939.2307692307693,844.9450549450549,-0.465210,0.092896,0.927429,-1.315918,2.474823,4.508514,1,1,1,1,1,93.000000
2024-12-21 15:53:05.714,1.309883461336362,0.6013401446199478,0.8467959705857662,0.5852968184623316,0.7522792968029449,0.3604409601755399,0.3381249475993069,0.4738940756048415,1.318785686430876,0.4689034152181876,0.3556029421899431,0.4611661456125162,1.128945397629221,-0.09426979945517715,0.0225371772805006,0.3673765040932268,0.7535749185278731,-0.4489134646600455,-0.1610093927209726,0.3311155207488569,804.6520146520147,800.6227106227107,798.6080586080586,796.1904761904763,740.1831501831502,615.2747252747253,-0.513245,0.018005,0.902710,-3.155212,13.592834,-4.299164,1,1,1,1,1,93.000000
2024-12-21 15:53:06.214,1.116798516355281,0.611389948826162,0.5149505096034318,0.7763271179927198,0.6538690385249526,0.2014684382909252,0.3361565799947051,0.5876283345749901,1.303106995676136,0.4156285513997534,0.323830448802773,0.4914699187229683,1.083949179917284,-0.1100446502638949,-0.01381426858207209,0.3918834842368911,0.7897848827896906,-0.5226254294169594,-0.177092331398745,0.4374787300736999,793.3699633699634,809.0842490842491,800.6227106227107,803.040293040293,892.893772893773,901.3553113553114,-0.455139,-0.072021,0.772522,-2.512207,10.168457,6.796417,1,1,1,1,1,93.000000
2024-12-21 15:53:06.623,,,,,,,,,,,,,,,,,,,,,,,,,,,,,,,,,,,,,,,/muse/elements/blink
2024-12-21 15:53:06.722,0.6605807444914195,0.5503319037294104,0.5402525681440173,0.9173775039910648,0.1731125883280745,0.08274995661840027,0.4070737426791561,0.6144233913916761,0.9565879538960333,0.4095298483419628,0.3668351471913653,0.4761319052449173,0.9401225272404797,-0.1072423363374023,-0.09488013762251687,0.4014327563646273,0.7918850082079405,-0.4689384688137617,-0.2611433368374067,0.4839085178507002,838.4981684981685,792.1611721611722,783.6996336996338,873.5531135531136,799.4139194139194,732.9304029304029,-0.422363,0.013123,0.845520,2.071075,-3.454285,-0.777588,1,1,1,1,1,93.000000
2024-12-21 15:53:07.214,0.6831924965579012,0.6873357222428039,0.5356950670339649,0.9878788709784974,0.1960301518966381,0.2481686486882523,0.4172739028437459,0.6316359708516183,0.9408547427069367,0.3245898729971499,0.362089898722359,0.4075709145275341,1.053740712432051,-0.02293908306253823,-0.1823512561346408,0.4287777840919752,0.8223520787762041,-0.4744847158310581,-0.4126036126729288,0.4974356969560927,847.7655677655678,805.4578754578755,801.4285714285714,815.1282051282052,718.8278388278388,482.3076923076923,-0.621094,-0.088745,1.204529,1.607513,6.796417,4.231873,1,1,1,1,1,93.000000
2024-12-21 15:53:07.713,0.6831924965579012,0.6469627047899414,0.6787510715663648,1.13138179398397,0.1960301518966381,0.2473624276402735,0.3099481356844744,0.4819832231217329,0.9408547427069367,0.2912327275428302,0.2809931825209036,0.3320433276290231,1.053740712432051,0.0181376146428083,-0.2274419218738297,0.3920080638028967,0.8223520787762041,-0.4509190692190634,-0.5008996500300981,0.397466452023123,819.1575091575091,802.6373626373627,805.4578754578755,807.4725274725275,740.5860805860806,707.1428571428571,-0.431946,-0.032471,0.917175,1.757050,-2.220612,-0.575714,1,1,1,1,1,93.000000
2024-12-21 15:53:08.214,0.6831924965579012,0.6046582654490198,0.4619328947276921,1.13138179398397,0.1960301518966381,0.2349150653153685,-0.06739172795095189,0.4819832231217329,0.9408547427069367,0.3406797003651082,0.1847965080322794,0.3320433276290231,1.053740712432051,0.0478392356422913,-0.09523241764991197,0.3920080638028967,0.8223520787762041,-0.5489859475321385,-0.4166925754945635,0.397466452023123,811.0989010989011,802.6373626373627,806.2637362637363,805.4578754578755,777.6556776556777,709.5604395604396,-0.490845,0.023071,0.786987,-2.018738,0.336456,-0.134583,1,1,1,1,1,93.000000
2024-12-21 15:53:08.360,,,,,,,,,,,,,,,,,,,,,,,,,,,,,,,,,,,,,,,/muse/elements/blink
2024-12-21 15:53:08.720,0.6831924965579012,0.5058589596438845,0.3460968558435027,1.13138179398397,0.1960301518966381,-0.05466218349127596,0.02600116290059767,0.4819832231217329,0.9408547427069367,0.3542460000126516,0.08637132899214545,0.3320433276290231,1.053740712432051,-0.02335733021144703,-0.1522435204277163,0.3920080638028967,0.8223520787762041,-0.4090718446666688,-0.3593937159952981,0.397466452023123,763.1501831501831,803.8461538461539,821.978021978022,806.2637362637363,623.7362637362637,558.8644688644689,-0.399597,-0.066040,0.843994,2.340240,-10.990906,1.428070,1,1,1,1,1,93.000000
2024-12-21 15:53:08.998,,,,,,,,,,,,,,,,,,,,,,,,,,,,,,,,,,,,,,,/muse/elements/blink
2024-12-21 15:53:09.214,0.6831924965579012,0.5443378085895387,0.4118863068976159,1.13138179398397,0.1960301518966381,0.1361162063271447,0.06081252769329577,0.4819832231217329,0.9408547427069367,0.2001910123209907,0.09422637792264688,0.3320433276290231,1.053740712432051,0.05640172815134624,-0.1864366928942522,0.3920080638028967,0.8223520787762041,-0.2530345148964691,-0.3193950793546972,0.397466452023123,826.007326007326,810.6959706959707,785.7142857142858,813.919413919414,726.0805860805862,533.8827838827839,-0.562805,-0.010559,0.989258,-4.508514,0.157013,-0.717773,1,2,1,1,2,93.000000
2024-12-21 15:53:09.714,0.6831924965579012,0.9201565503459085,0.5461732563270525,1.13138179398397,0.1960301518966381,0.5015090750432795,0.1497566666461973,0.4819832231217329,0.9408547427069367,0.3599039506255001,0.04281982560627765,0.3320433276290231,1.053740712432051,0.07509928724919124,-0.2278619666562295,0.3920080638028967,0.8223520787762041,-0.215323223283849,-0.2654236679464755,0.397466452023123,810.6959706959707,797.8021978021978,807.8754578754579,820.3663003663004,840.9157509157509,757.9120879120879,-0.512634,0.029968,0.777954,-3.147736,2.968292,4.418793,1,2,1,1,2,93.000000
2024-12-21 15:53:10.002,,,,,,,,,,,,,,,,,,,,,,,,,,,,,,,,,,,,,,,/muse/elements/blink
2024-12-21 15:53:10.214,0.6831924965579012,1.014690933941998,0.5989836903232697,1.13138179398397,0.1960301518966381,0.607139497150284,0.1183333653983683,0.4819832231217329,0.9408547427069367,0.4663503761343085,0.04281982560627765,0.3320433276290231,1.053740712432051,0.07395756695402325,-0.2077360993553352,0.3920080638028967,0.8223520787762041,-0.2074784071570906,-0.2753255338633064,0.397466452023123,788.5347985347986,805.8608058608058,807.8754578754579,811.0989010989011,753.0769230769231,676.5201465201466,-0.517090,-0.041687,0.882996,1.024323,-6.116028,1.046753,1,2,1,1,2,93.000000
2024-12-21 15:53:10.714,0.6831924965579012,1.175644805767605,0.5989836903232697,1.13138179398397,0.1960301518966381,0.7049108167173356,0.1183333653983683,0.4819832231217329,0.9408547427069367,0.4614263220312832,0.04281982560627765,0.3320433276290231,1.053740712432051,0.003760091964765312,-0.2077360993553352,0.3920080638028967,0.8223520787762041,-0.2798649366098069,-0.2753255338633064,0.397466452023123,794.1758241758242,806.2637362637363,797.8021978021978,803.8461538461539,954.9450549450549,970.6593406593407,-0.418213,0.118835,0.816101,2.228088,-3.043060,-0.575714,1,2,1,1,2,93.000000
2024-12-21 15:53:11.218,0.6831924965579012,1.005136698743549,0.3051244198783974,1.13138179398397,0.1960301518966381,0.576223264016132,-0.3088733586485934,0.4819832231217329,0.9408547427069367,0.5074854807535111,-0.4039434869187292,0.3320433276290231,1.053740712432051,-0.01787317995858941,-0.02710226998201696,0.3920080638028967,0.8223520787762041,-0.1972456989945029,-0.4285355070381112,0.397466452023123,907.8021978021978,817.1428571428571,781.6849816849817,871.1355311355312,734.5421245421246,440.4029304029304,-0.562744,0.011292,0.937927,-2.631836,0.328979,3.962708,1,2,1,1,2,93.000000
2024-12-21 15:53:11.713,0.6831924965579012,0.8439658007976165,0.5505494140641869,1.13138179398397,0.1960301518966381,0.7090647045794676,0.2339426510012713,0.4819832231217329,0.9408547427069367,0.4670488748596479,0.1494753232815962,0.3320433276290231,1.053740712432051,0.1339150844755058,-0.1384323526182277,0.3920080638028967,0.8223520787762041,-0.04561760032036102,-0.360490445305967,0.397466452023123,749.4505494505495,808.2783882783883,809.4871794871796,756.7032967032967,759.1208791208792,689.0109890109891,-0.499939,-0.031799,0.802246,4.254303,-5.959015,-5.787048,1,2,1,1,2,93.000000
2024-12-21 15:53:11.908,,,,,,,,,,,,,,,,,,,,,,,,,,,,,,,,,,,,,,,/muse/elements/blink
2024-12-21 15:53:12.213,0.6831924965579012,1.011734200397754,0.7258192620082722,1.13138179398397,0.1960301518966381,0.7129478867454789,0.4635948398764709,0.4819832231217329,0.9408547427069367,0.5158368254468764,0.4598693784924688,0.3320433276290231,1.053740712432051,0.2638348171713943,-0.1614420748639466,0.3920080638028967,0.8223520787762041,-0.004090418811402487,-0.34512655896176,0.397466452023123,785.7142857142858,806.6666666666667,790.5494505494506,702.3076923076924,783.6996336996338,740.1831501831502,-0.492981,0.031372,0.739929,2.871094,-3.596344,-6.497345,1,2,1,1,2,93.000000
2024-12-21 15:53:12.716,0.6831924965579012,1.06508377484255,0.8431599057976692,1.13138179398397,0.1960301518966381,0.7324658138535542,0.6145258907829169,0.4819832231217329,0.9408547427069367,0.5158368254468764,0.4598693784924688,0.3320433276290231,1.053740712432051,0.3077890736012521,-0.2482935026367691,0.3920080638028967,0.8223520787762041,0.05223571650384073,-0.3087493093875494,0.397466452023123,823.5897435897436,808.2783882783883,809.8901098901099,842.1245421245421,996.8498168498169,1310.732600732601,-0.325806,-0.077209,0.637390,-6.916046,10.295563,-5.779572,1,2,1,1,2,93.000000
2024-12-21 15:53:13.214,0.6831924965579012,0.9483543067911918,0.9419295471047502,1.13138179398397,0.1960301518966381,0.5131423979212728,0.6887378803143405,0.4819832231217329,0.9408547427069367,0.413728118410221,0.4945801178600572,0.3320433276290231,1.053740712432051,0.2924536511778584,0.2497266601232902,0.3920080638028967,0.8223520787762041,0.00607475214324558,-0.03333065851459682,0.397466452023123,800.6227106227107,794.1758241758242,780.0732600732601,793.7728937728938,581.8315018315019,435.1648351648352,-0.441956,-0.068604,1.168762,-1.128998,-20.822906,-8.845062,1,2,1,1,2,93.000000
2024-12-21 15:53:13.714,0.6831924965579012,0.6472278375545732,0.9686910651448213,1.13138179398397,0.1960301518966381,0.6623992448141803,0.7019019821283442,0.4819832231217329,0.9408547427069367,0.7111007569309165,0.4926799316675906,0.3320433276290231,1.053740712432051,0.0892377576497399,0.3173581200104162,0.3920080638028967,0.8223520787762041,-0.2239459668893836,0.0167252263271873,0.397466452023123,823.992673992674,853.0036630036631,761.5384615384615,763.1501831501831,790.1465201465202,702.3076923076924,-0.468384,0.067444,0.768616,-3.686066,3.342133,-1.540222,1,2,1,1,2,93.000000
2024-12-21 15:53:14.214,0.6831924965579012,1.019856169669959,1.283591385157679,1.13138179398397,0.1960301518966381,0.8357003095744681,0.5075978465177593,0.4819832231217329,0.9408547427069367,0.8024122754360147,0.4839975988000692,0.3320433276290231,1.053740712432051,0.0763049530102015,0.3638925302705102,0.3920080638028967,0.8223520787762041,-0.2797443952923311,0.01827436807195851,0.397466452023123,789.3406593406594,805.8608058608058,810.2930402930403,812.3076923076924,713.5897435897436,573.3699633699634,-0.490295,0.013977,0.713928,5.473022,-2.572021,6.287994,1,2,1,1,2,93.000000
2024-12-21 15:53:14.717,0.6831924965579012,1.140972200983314,1.294215514426851,0.8090813776076835,0.1960301518966381,0.904391757759492,0.5781582287320896,1.185950355728543,0.9408547427069367,0.806040118519103,0.4509230862751645,1.256011685849512,1.053740712432051,0.04253852911958113,0.1182586415593285,1.3374791554871,0.8223520787762041,-0.2913333603663566,-0.08065672420258223,1.268318873867758,764.3589743589744,796.996336996337,797.8021978021978,791.3553113553114,827.6190476190476,725.2747252747253,-0.456482,0.048157,0.786926,-1.248627,-2.781372,-10.235748,1,1,1,1,1,93.000000
2024-12-21 15:53:15.219,0.6831924965579012,1.096757479577809,1.17057258084271,0.8090813776076835,0.1960301518966381,0.7091693828834078,0.563366137646979,1.185950355728543,0.9408547427069367,0.6964944411894703,0.4518274514325987,1.256011685849512,1.053740712432051,-0.01833466592550511,0.03228118334684497,1.3374791554871,0.8223520787762041,-0.006787802843619638,-0.0007242040167388071,1.268318873867758,812.7106227106227,805.0549450549451,794.5787545787546,796.1904761904763,733.7362637362637,749.4505494505495,-0.651001,-0.026978,1.268860,0.343933,4.119720,5.674896,1,1,1,1,1,93.000000
2024-12-21 15:53:15.722,0.6831924965579012,0.8170178265172777,1.03194665880186,0.8090813776076835,0.1960301518966381,0.3526808845656544,0.5205414634919509,1.185950355728543,0.9408547427069367,0.4109352436474095,0.4520986743957452,1.256011685849512,1.053740712432051,0.003170439571828995,-0.005014202724260969,1.3374791554871,0.8223520787762041,0.0826498135923518,-0.04485834791119112,1.268318873867758,698.2783882783883,776.8498168498169,805.4578754578755,746.6300366300367,717.2161172161173,812.3076923076924,-0.449036,-0.161987,0.852478,7.783356,-7.581482,-15.686340,1,1,1,1,1,93.000000
2024-12-21 15:53:15.798,,,,,,,,,,,,,,,,,,,,,,,,,,,,,,,,,,,,,,,/muse/elements/blink
2024-12-21 15:53:15.953,,,,,,,,,,,,,,,,,,,,,,,,,,,,,,,,,,,,,,,/muse/elements/blink
2024-12-21 15:53:16.214,0.6831924965579012,0.6741321602274732,0.7220906451770109,0.8090813776076835,0.1960301518966381,0.236883887097016,0.3945432935903135,1.185950355728543,0.9408547427069367,0.2619655087541181,0.232891331294643,1.256011685849512,1.053740712432051,0.01642236215942878,-0.1149813695588656,1.3374791554871,0.8223520787762041,0.1369123915706419,-0.08144694891951376,1.268318873867758,798.2051282051282,803.8461538461539,794.1758241758242,813.919413919414,736.5567765567765,658.7912087912088,-0.460327,0.051941,0.827637,-1.308441,-5.689850,-7.618866,1,1,1,1,1,93.000000
2024-12-21 15:53:16.714,0.6831924965579012,0.7749307771254825,0.5025061596107164,0.8090813776076835,0.1960301518966381,0.4346397429088704,0.2535872542527983,1.185950355728543,0.9408547427069367,0.2510727838315933,0.1807418900598184,1.256011685849512,1.053740712432051,0.05944380905757918,-0.07068807358431299,1.3374791554871,0.8223520787762041,0.02123154227355829,-0.2536244129556964,1.268318873867758,779.2673992673992,794.981684981685,801.8315018315019,799.8168498168499,797.3992673992674,794.1758241758242,-0.444641,-0.063416,0.916992,2.586975,-7.514191,1.846771,1,1,1,1,1,93.000000
2024-12-21 15:53:17.214,0.6831924965579012,0.8072704366189909,0.4751491798600088,0.8090813776076835,0.1960301518966381,0.4597019496386364,0.1792208687548817,1.185950355728543,0.9408547427069367,0.2490190440972468,0.1807418900598184,1.256011685849512,1.053740712432051,0.08816169366686243,-0.03515748794338265,1.3374791554871,0.8223520787762041,0.02725498817430521,-0.238793383869753,1.268318873867758,799.8168498168499,794.981684981685,811.5018315018315,805.0549450549451,851.3919413919414,1066.153846153846,-0.377441,0.101257,0.741394,-5.353394,3.917847,-5.428162,1,2,1,1,2,93.000000
2024-12-21 15:53:17.612,,,,,,,,,,,,,,,,,,,,,,,,,,,,,,,,,,,,,,,/muse/elements/blink
2024-12-21 15:53:17.713,0.6831924965579012,0.3060145081630078,0.3320815483536044,0.8090813776076835,0.1960301518966381,0.3112623899713293,0.1101457330059135,1.185950355728543,0.9408547427069367,0.4207946313109617,0.06311561424849244,1.256011685849512,1.053740712432051,0.1484701551000936,0.02787555830422416,1.3374791554871,0.8223520787762041,0.01838497693495393,-0.3465932194789138,1.268318873867758,790.952380952381,802.6373626373627,802.6373626373627,817.1428571428571,907.8021978021978,776.8498168498169,-0.477478,0.004333,0.846924,-1.256104,-5.480499,-0.134583,1,2,1,1,2,93.000000
2024-12-21 15:53:18.096,,,,,,,,,,,,,,,,,,,,,,,,,,,,,,,,,,,,,,,/muse/elements/blink
2024-12-21 15:53:18.218,0.6831924965579012,0.4533330784699384,0.3495946293726409,0.8090813776076835,0.1960301518966381,0.4153961936718453,0.1323987437226858,1.185950355728543,0.9408547427069367,0.4391132668953497,0.2451035045600279,1.256011685849512,1.053740712432051,0.2124749084813551,0.1336821300219858,1.3374791554871,0.8223520787762041,0.05371627315251665,-0.3571264846400632,1.268318873867758,807.0695970695971,799.4139194139194,790.1465201465202,794.5787545787546,985.5677655677656,965.8241758241759,-0.462952,-0.075806,0.747742,-0.201874,-0.179443,3.200073,1,2,1,1,2,93.000000
2024-12-21 15:53:18.723,0.6831924965579012,0.4019102989870304,0.2873854035599573,0.8090813776076835,0.1960301518966381,0.342868505453259,0.09759303082926547,1.185950355728543,0.9408547427069367,0.2207784841871084,0.1181230951333445,1.256011685849512,1.053740712432051,0.2510436228400185,0.1858571194386086,1.3374791554871,0.8223520787762041,0.08717953900539022,-0.4004752071626463,1.268318873867758,806.2637362637363,811.0989010989011,798.2051282051282,811.0989010989011,801.025641025641,677.7289377289377,-0.528015,0.053711,0.897522,0.471039,-4.590759,-4.164581,1,2,1,1,2,93.000000
2024-12-21 15:53:19.214,0.6831924965579012,0.5644415476316652,0.3729298934970923,0.8090813776076835,0.1960301518966381,0.4979501223787403,0.222193023652463,1.185950355728543,0.9408547427069367,0.1057853485734969,0.1178908621924518,1.256011685849512,1.053740712432051,0.3213111853739004,0.3062750263750147,1.3374791554871,0.8223520787762041,0.0911338280953117,-0.4191344000090423,1.268318873867758,846.5567765567765,811.0989010989011,794.1758241758242,802.2344322344322,711.978021978022,244.981684981685,-0.656982,-0.020447,1.195923,2.086029,8.082428,5.039368,1,2,1,1,2,93.000000
2024-12-21 15:53:19.714,0.6831924965579012,0.5672468301059524,0.5812063833250563,0.6228845353119099,0.1960301518966381,0.1416473469059559,0.2115339709021312,0.3074468242689413,0.9408547427069367,0.2186770023851843,-0.02160254125562858,0.1732716508249215,1.053740712432051,-0.09813943743512094,-0.1905469877173706,0.452985140812685,0.8223520787762041,-0.2302186813058094,-0.2893033118841518,0.3119895826859281,809.0842490842491,801.025641025641,799.4139194139194,810.2930402930403,741.7948717948718,606.007326007326,-0.518433,-0.064087,0.795654,5.435638,3.162689,-6.332855,1,1,1,1,1,93.000000
2024-12-21 15:53:20.214,0.6831924965579012,1.004568156890609,0.6443690728294259,0.5600997614951925,0.1960301518966381,0.5938602049206844,0.3365992996106523,0.5118177072815787,0.9408547427069367,0.4870027084097022,0.05672760828632296,0.4045088811436071,1.053740712432051,-0.04811305267729166,-0.1181178937547959,0.560442774164605,0.8223520787762041,-0.2188429620392867,-0.352972885782788,0.3673051005108769,773.6263736263736,795.7875457875458,799.4139194139194,796.5934065934066,786.1172161172161,934.7985347985348,-0.480225,-0.011719,0.739441,-1.899109,-4.471130,-3.835602,1,1,1,1,1,93.000000
2024-12-21 15:53:20.713,0.5426917358665718,0.889389044719006,0.6171422806999558,0.5856314137599454,0.310176699068712,0.487969135777175,0.2938485455253739,0.5949561701132379,0.7126451281499719,0.4870027084097022,0.09156046530846972,0.5583804014958181,0.9512968930285519,-0.03325127694106612,-0.1861222652375921,0.537919151488001,0.7934969373611724,-0.2588342469039499,-0.4522216022327487,0.3575631947202285,807.4725274725275,797.3992673992674,799.8168498168499,796.5934065934066,875.5677655677656,1097.985347985348,-0.434875,-0.037354,0.854797,-0.500946,-10.116119,0.418701,1,1,1,1,1,93.000000
2024-12-21 15:53:21.218,0.5426917358665718,0.8549925634824138,0.5529948933801213,0.6923847105598439,0.310176699068712,0.4753758048446045,0.2468237930066127,0.7092941958694668,0.7126451281499719,0.4857031570896017,0.06425277686316647,0.614870356161384,0.9512968930285519,0.05596287230853047,-0.1312419814908824,0.5590515797261922,0.7934969373611724,-0.2388334020696722,-0.6020475898663089,0.4176221853077267,804.6520146520147,796.996336996337,800.2197802197802,772.4175824175825,747.032967032967,518.974358974359,-0.505188,-0.057129,1.114258,2.317810,-10.931091,-24.142609,1,1,1,1,1,93.000000
2024-12-21 15:53:21.713,0.7500838176979875,0.3148440308596743,0.448345761809276,0.731381890656595,0.595129936941541,0.01199935961277455,0.08789478537014279,0.6744995122283955,0.8175199347184131,0.1785021953606668,-0.04780170426266758,0.6059658805489637,1.038246992328578,0.06758568707844211,-0.1516487759550437,0.466388897882645,0.85318960131674,-0.2177251629408553,-0.6445064899364126,0.3642869298682351,787.7289377289378,802.2344322344322,762.7472527472528,707.5457875457876,809.8901098901099,757.5091575091575,-0.402100,-0.008484,0.847900,34.296112,-2.915955,-54.677887,1,1,1,1,1,93.000000
2024-12-21 15:53:22.214,1.040340665123078,0.3344464617819127,0.5895227171748458,0.7833682026190634,1.135529703387402,0.1248828713990392,0.1519861103589066,0.6398269320312551,1.078519981862405,0.6015793345332066,0.1501921209547588,0.5064075413273548,1.331385119535949,0.2927447237944357,0.2114377755537795,0.4516128682924499,1.045441040420445,-0.09119770685372361,-0.05665466296583696,0.3802844081821648,817.5457875457876,802.6373626373627,795.7875457875458,786.5201465201466,828.4249084249085,757.1062271062272,-0.349548,-0.150146,0.864441,22.542572,-7.588959,-50.423584,1,1,1,1,1,93.000000
2024-12-21 15:53:22.716,1.111765653659309,0.5959578957775996,0.7394561761846704,0.6438214753469957,1.143850449934728,0.4722110066455644,0.3426877872232242,0.3265897403006957,1.134769508445384,0.716243600598353,0.456055701391161,0.08716561480571672,1.311128897006111,0.3403715941847902,0.3859501576195,0.3680470451407084,1.083461814304877,-0.06629673285765787,0.2626398709870508,0.1966036474134632,784.5054945054945,796.996336996337,816.3369963369963,830.8424908424909,727.2893772893773,762.7472527472528,-0.524109,0.129395,0.876465,14.437714,-8.396454,-0.687866,1,1,1,1,1,93.000000
2024-12-21 15:53:23.219,1.204333250902881,0.8290613782064677,0.6912754764586256,0.6438214753469957,1.278515091697417,0.5437240949652912,0.3808426972986169,0.3265897403006957,1.443806255333749,0.716243600598353,0.456055701391161,0.08716561480571672,1.332062544308127,0.3467390915032968,0.3915647377232834,0.3680470451407084,1.11039848184672,-0.1208220870071818,0.2645880305307771,0.1966036474134632,834.0659340659341,807.4725274725275,792.5641025641025,817.5457875457876,881.6117216117217,767.985347985348,-0.401245,-0.032043,1.065430,-10.407715,-8.628235,10.893707,1,1,1,1,1,93.000000
2024-12-21 15:53:23.713,1.247636101420941,0.8023789091160992,0.5492971658257455,0.6438214753469957,1.108121648950194,0.4791395164054007,0.3325817231121952,0.3265897403006957,1.438173225177377,0.6534383785542164,0.4742627425217447,0.08716561480571672,1.184180179922257,0.1782914867623818,0.2310243378834817,0.3680470451407084,0.9665807485076315,-0.2609492034847767,0.09103348179489218,0.1966036474134632,805.8608058608058,755.4945054945055,825.6043956043957,829.2307692307693,855.4212454212454,745.8241758241759,-0.279541,-0.059326,0.875916,-8.807678,3.790741,47.896423,1,1,1,1,1,93.000000
2024-12-21 15:53:23.783,,,,,,,,,,,,,,,,,,,,,,,,,,,,,,,,,,,,,,,/muse/elements/blink
2024-12-21 15:53:24.221,1.200376865152208,0.8152194102244731,0.2666042553359475,0.6438214753469957,1.089594435396098,0.1702977383984629,0.1933636834946348,0.3265897403006957,1.39966225662917,0.3908485924358218,0.3291663795588613,0.08716561480571672,1.19646470894909,0.08187611078728448,-0.04980787166379477,0.3680470451407084,0.8708902024386597,-0.3648099243088131,-0.4921513002444614,0.1966036474134632,826.4102564102565,822.3809523809524,781.2820512820513,774.4322344322345,906.996336996337,843.7362637362637,-0.418823,0.049133,0.796021,-0.635529,-11.065674,-2.646790,1,1,1,1,1,93.000000
2024-12-21 15:53:24.722,1.162207906730301,0.5966351159462979,0.444890387649103,0.6438214753469957,0.8417527399012861,-0.04635509376770454,0.158622208135003,0.3265897403006957,1.109909462735702,0.1662329813718708,0.2148267042291474,0.08716561480571672,1.217605761170609,0.0894117502540039,-0.03430133717150845,0.3680470451407084,0.8032309321609555,-0.3407074139853472,-0.5002935539826118,0.1966036474134632,786.5201465201466,797.3992673992674,797.3992673992674,801.8315018315019,890.0732600732601,892.0879120879121,-0.281311,-0.033203,0.983093,1.704712,-12.299347,-4.815063,1,1,1,1,1,93.000000
2024-12-21 15:53:25.216,1.162207906730301,0.7568175194217258,0.6212983278898987,0.6438214753469957,0.8417527399012861,0.03910411107931913,-0.06712505945832066,0.3265897403006957,1.109909462735702,0.4499969012529612,0.2914640732454244,0.08716561480571672,1.217605761170609,0.2212886854623823,-0.1339830279418534,0.3680470451407084,0.8032309321609555,-0.1468649863175195,-0.5283176871219767,0.1966036474134632,686.996336996337,803.040293040293,836.8864468864469,691.025641025641,667.2527472527473,335.2380952380952,-0.500000,0.076172,1.211853,-2.317810,2.497253,3.364563,1,1,1,1,1,93.000000
2024-12-21 15:53:25.423,,,,,,,,,,,,,,,,,,,,,,,,,,,,,,,,,,,,,,,/muse/elements/blink
2024-12-21 15:53:25.721,1.162207906730301,0.6071339467167118,0.8057088403019823,0.6438214753469957,0.8417527399012861,0.1014206409003073,0.622901176206992,0.3265897403006957,1.109909462735702,0.4692974803058146,0.7075639381592465,0.08716561480571672,1.217605761170609,0.1997600599454167,0.2421400532642565,0.3680470451407084,0.8032309321609555,-0.2170346731229083,-0.3060890048726423,0.1966036474134632,815.1282051282052,813.1135531135532,799.0109890109891,802.2344322344322,789.7435897435897,745.8241758241759,-0.401672,0.072571,0.850830,-13.944244,1.091614,32.711029,1,1,1,1,1,93.000000
2024-12-21 15:53:26.217,1.162207906730301,0.6071339467167118,0.9959918540773979,0.6438214753469957,0.8417527399012861,0.1014206409003073,0.7524882365292539,0.3265897403006957,1.109909462735702,0.4692974803058146,0.7413283892824176,0.08716561480571672,1.217605761170609,0.1997600599454167,0.2728903373769728,0.3680470451407084,0.8032309321609555,-0.2170346731229083,-0.3006072412906871,0.1966036474134632,828.8278388278388,808.2783882783883,795.7875457875458,836.8864468864469,827.6190476190476,789.3406593406594,-0.327332,0.128113,0.780884,-2.893524,7.760925,0.171967,1,1,1,1,1,93.000000
2024-12-21 15:53:26.713,1.162207906730301,0.6092948406979345,1.097889698013409,0.6438214753469957,0.8417527399012861,0.14411881610942,0.8872652213229595,0.3265897403006957,1.109909462735702,0.3121738579869505,0.7382287238385612,0.08716561480571672,1.217605761170609,0.103797010818921,0.3753369553082129,0.3680470451407084,0.8032309321609555,-0.3877960316854965,-0.2315437091184749,0.1966036474134632,809.8901098901099,810.6959706959707,796.1904761904763,813.919413919414,846.5567765567765,720.8424908424909,-0.465027,0.014404,0.861938,8.635712,1.375732,-10.587158,1,2,1,1,2,93.000000
2024-12-21 15:53:26.741,,,,,,,,,,,,,,,,,,,,,,,,,,,,,,,,,,,,,,,/muse/elements/blink
2024-12-21 15:53:27.007,,,,,,,,,,,,,,,,,,,,,,,,,,,,,,,,,,,,,,,/muse/elements/blink
2024-12-21 15:53:27.214,1.162207906730301,0.6092948406979345,1.258545366798381,0.6438214753469957,0.8417527399012861,0.14411881610942,1.089684152897299,0.3265897403006957,1.109909462735702,0.3121738579869505,0.7382287238385612,0.08716561480571672,1.217605761170609,0.103797010818921,0.5150998953392175,0.3680470451407084,0.8032309321609555,-0.3877960316854965,-0.1466523301668224,0.1966036474134632,813.919413919414,803.8461538461539,812.3076923076924,807.0695970695971,845.7509157509157,802.6373626373627,-0.458008,0.006958,0.864136,3.080444,-5.861816,-8.142242,1,2,1,1,2,93.000000
2024-12-21 15:53:27.714,1.162207906730301,1.050850122632592,0.8318687226229712,0.6438214753469957,0.8417527399012861,0.003763198989259801,1.404895532054188,0.3265897403006957,1.109909462735702,0.6691334079109513,1.158264856346181,0.08716561480571672,1.217605761170609,0.1060778008287514,0.7269058590010485,0.3680470451407084,0.8032309321609555,-0.0336305228934092,0.3778048483860443,0.1966036474134632,799.8168498168499,803.4432234432235,801.4285714285714,836.8864468864469,755.0915750915751,700.6959706959707,-0.408875,-0.002014,0.912720,7.648773,-4.710388,-12.239532,1,2,1,1,2,93.000000
2024-12-21 15:53:28.221,1.162207906730301,0.9452859020188532,0.6259297345679423,0.6438214753469957,0.8417527399012861,0.2820662429931073,1.119656046778449,0.3265897403006957,1.109909462735702,0.6727651297669232,1.158264856346181,0.08716561480571672,1.217605761170609,0.1204179086799249,0.7666722246091475,0.3680470451407084,0.8032309321609555,0.03720972426962937,0.5739355446749451,0.1966036474134632,857.4358974358975,800.6227106227107,796.1904761904763,855.0183150183151,825.2014652014652,842.1245421245421,-0.403198,0.010742,0.932739,1.091614,-1.128998,3.648682,1,2,1,1,2,93.000000
2024-12-21 15:53:28.714,1.162207906730301,0.8661198791417554,0.5450068102930469,0.6438214753469957,0.8417527399012861,0.265930806673039,0.9547190496806387,0.3265897403006957,1.109909462735702,0.6740020933660824,1.158264856346181,0.08716561480571672,1.217605761170609,0.2128266221286703,0.722405028843297,0.3680470451407084,0.8032309321609555,0.1776012556356422,0.6709617582785007,0.1966036474134632,635.8241758241759,796.1904761904763,854.2124542124542,721.6483516483516,782.0879120879121,788.1318681318681,-0.439575,-0.008179,0.869202,0.986938,-0.613098,1.069183,1,2,1,1,2,93.000000
2024-12-21 15:53:28.974,,,,,,,,,,,,,,,,,,,,,,,,,,,,,,,,,,,,,,,/muse/elements/blink
2024-12-21 15:53:29.214,1.162207906730301,0.8626741199817628,0.2709974738157326,0.6438214753469957,0.8417527399012861,0.3363120619075191,-0.08990221714733494,0.3265897403006957,1.109909462735702,0.4146918173955759,0.07504749138805147,0.08716561480571672,1.217605761170609,0.2358816684163527,0.7201370003386135,0.3680470451407084,0.8032309321609555,0.2155903221074373,0.7662798808621674,0.1966036474134632,818.7545787545788,778.4615384615385,809.0842490842491,795.3846153846154,859.8534798534798,753.4798534798535,-0.439880,0.015076,0.899719,0.814972,-1.622467,1.084137,1,2,1,1,2,93.000000
2024-12-21 15:53:29.258,,,,,,,,,,,,,,,,,,,,,,,,,,,,,,,,,,,,,,,/muse/elements/blink
