TimeStamp,Delta_TP9,Delta_AF7,Delta_AF8,Delta_TP10,Theta_TP9,Theta_AF7,Theta_AF8,Theta_TP10,Alpha_TP9,Alpha_AF7,Alpha_AF8,Alpha_TP10,Beta_TP9,Beta_AF7,Beta_AF8,Beta_TP10,Gamma_TP9,Gamma_AF7,Gamma_AF8,Gamma_TP10,RAW_TP9,RAW_AF7,RAW_AF8,RAW_TP10,AUX_RIGHT,AUX_LEFT,Accelerometer_X,Accelerometer_Y,Accelerometer_Z,Gyro_X,Gyro_Y,Gyro_Z,HeadBandOn,HSI_TP9,HSI_AF7,HSI_AF8,HSI_TP10,Battery,Elements
2024-12-18 12:49:03.260,,,,,,,,,,,,,,,,,,,,,,,,,,,,,,,,,,,,,,,/muse/event/connected MuseS-9CF6
2024-12-18 12:49:03.472,,,,,,,,,,,,,,,,,,,,,,,,,,,,,,,,,,,,,,,/muse/elements/blink
2024-12-18 12:49:03.764,0.261162449719153,0.02133291840733885,-0.1358388901602995,0.4196328437029633,0.2494788590073235,0.1141468215186233,-0.08847992189892466,0.4579947530682063,0.6453632316430069,0.245891577397314,0.06661173560506327,0.849036807525437,0.7171977915875206,0.5084784549474926,0.3498388044504043,0.8517281422546459,0.5303584469038296,0.3871634363785273,0.2949268263269108,0.6782735468007921,817.948717948718,810.2930402930403,807.4725274725275,811.0989010989011,877.985347985348,832.8571428571429,-0.442322,0.003845,0.882507,0.186920,-1.076660,-0.067291,1,1,1,1,1,84.000000
2024-12-18 12:49:04.261,0.4043101544078985,0.02363406750137806,0.238059250955237,0.3891984384258876,0.3803038690251861,0.3067632650306734,0.09176217452311367,0.2996519832121734,0.5839270821445727,0.2683554133443451,0.05065141200191218,0.7476802137450108,0.4500464840799541,0.5587455806492573,0.3031972114562823,0.7482817510512351,0.417643900856075,0.326102532351389,0.2321495759511024,0.4604996599546807,789.7435897435897,808.2783882783883,797.3992673992674,801.8315018315019,774.8351648351648,834.0659340659341,-0.439453,-0.007568,0.884705,0.216827,-0.777588,0.194397,1,1,1,1,1,84.000000
2024-12-18 12:49:04.770,0.4036290175763697,0.08652789831319102,0.2617913995844618,0.4032152130314734,0.4488924729872967,0.2729799489595377,0.09835719428065462,0.3687685222101287,0.5450577391217798,0.1836940450200967,-0.005814513345500051,0.7289952421434754,0.3720654297246805,0.5554441161536924,0.2991680271293457,0.6932794300638185,0.415244112518332,0.2842397942493395,0.1919298560474268,0.4411350731378981,813.5164835164835,813.919413919414,805.0549450549451,803.040293040293,759.5238095238095,709.5604395604396,-0.449646,0.001892,0.889404,0.590668,-1.106567,-0.755157,1,1,1,1,1,84.000000
2024-12-18 12:49:05.269,0.6879614308296951,0.06777283190139954,0.2412949442316838,0.8042367633094033,0.7128339893160998,0.1208485880517763,0.03967748330987383,0.3299671695358561,0.8704940397213603,0.4073467037739381,0.5292699035049648,0.7037988844960834,0.9369342079649128,0.4802170357631936,0.4326216784709654,0.821360798399312,0.451305347752095,0.3096860939233215,0.1975472183435409,0.6257925188340554,800.2197802197802,802.2344322344322,796.5934065934066,798.2051282051282,840.9157509157509,873.1501831501831,-0.446777,-0.002930,0.890381,-0.500946,-0.044861,-0.598145,1,1,1,1,1,84.000000
2024-12-18 12:49:05.761,0.5257399274572996,-0.03061956609146884,-0.05760491310632922,0.6999300965518067,0.5996460106404887,-0.2036248969809198,-0.1569965404137827,0.3646173440988315,0.87849492599518,0.389104178809662,0.5418800697204529,0.7364348484008958,0.8266344769703068,0.4409385426209361,0.4702620915422875,0.7589312997204167,0.392084119087618,0.3014555211540454,0.1421604569950869,0.6400586516484896,842.5274725274726,805.0549450549451,805.8608058608058,822.3809523809524,826.007326007326,906.5934065934066,-0.458008,-0.011108,0.875916,0.725250,-1.495361,-1.315918,1,1,1,1,1,84.000000
2024-12-18 12:49:05.826,,,,,,,,,,,,,,,,,,,,,,,,,,,,,,,,,,,,,,,/muse/elements/blink
2024-12-18 12:49:06.262,0.5257399274572996,-0.01498209032447043,0.05156094218093376,0.5877100791024245,0.5996460106404887,-0.001573410044321307,0.01285973818545664,0.3931022434764446,0.87849492599518,0.4126977526102593,0.5418800697204529,0.7364348484008958,0.8266344769703068,0.4986731545042254,0.5259802664679691,0.7677121147126608,0.392084119087618,0.3465081014449419,0.2371256011799996,0.6706018155941951,816.3369963369963,817.5457875457876,811.5018315018315,811.9047619047619,824.3956043956044,649.5238095238095,-0.443970,-0.028015,0.891846,1.069183,-1.061707,-1.054230,1,1,1,1,1,84.000000
2024-12-18 12:49:06.631,,,,,,,,,,,,,,,,,,,,,,,,,,,,,,,,,,,,,,,/muse/elements/blink
2024-12-18 12:49:06.761,0.2638444042046226,-0.1310136143543677,0.1898710160321209,0.420027093896226,0.4461434112240729,-0.02395426690049863,-0.06894931442771386,0.4193066019345645,0.3546406302666311,0.3642462899912871,0.3325056531260963,0.6455589254603248,0.6784191945307282,0.5554983155266567,0.4449145413543947,0.6219325191387889,0.323492855835228,0.4017230977009325,0.3351263502172185,0.6639494473445063,809.8901098901099,810.2930402930403,797.3992673992674,810.6959706959707,724.4688644688645,753.0769230769231,-0.448303,-0.020874,0.852112,1.226196,-2.497253,-1.839294,1,1,1,1,1,84.000000
2024-12-18 12:49:07.261,0.2638444042046226,-0.01200485035743986,0.6020835749348775,0.420027093896226,0.4461434112240729,0.003279987136770121,0.1380799835571942,0.4193066019345645,0.3546406302666311,0.6615916292036524,0.2437300350848034,0.6455589254603248,0.6784191945307282,0.6102133102584142,0.5393414881541855,0.6219325191387889,0.323492855835228,0.6440028345300149,0.4906825074814766,0.6639494473445063,822.7838827838829,814.7252747252747,805.0549450549451,807.8754578754579,843.3333333333334,1111.282051282051,-0.531494,0.006836,0.792175,-2.400055,9.248810,8.321686,1,1,1,1,1,84.000000
2024-12-18 12:49:07.761,0.2638444042046226,-0.08426697303906881,0.5897376047988592,0.420027093896226,0.4461434112240729,-0.1314311157258199,0.04809023838015528,0.4193066019345645,0.3546406302666311,0.6615916292036524,0.34066553992453,0.6455589254603248,0.6784191945307282,0.6151565059545923,0.5409799583933997,0.6219325191387889,0.323492855835228,0.684464125424099,0.5413456090447653,0.6639494473445063,801.4285714285714,807.4725274725275,805.8608058608058,809.4871794871796,872.7472527472528,1129.41391941392,-0.378357,0.039673,0.815918,-2.856140,-5.592651,5.577698,1,1,1,1,1,84.000000
2024-12-18 12:49:08.120,,,,,,,,,,,,,,,,,,,,,,,,,,,,,,,,,,,,,,,/muse/elements/blink
2024-12-18 12:49:08.274,0.2638444042046226,0.0528858605626853,0.5322455455810472,0.420027093896226,0.4461434112240729,-0.1733257112080761,-0.01581844497719764,0.4193066019345645,0.3546406302666311,0.6610660152140511,0.4017354200087875,0.6455589254603248,0.6784191945307282,0.5127554311565602,0.5233163700825142,0.6219325191387889,0.323492855835228,0.6728841643921992,0.5510391925523139,0.6639494473445063,801.8315018315019,792.967032967033,802.2344322344322,773.6263736263736,760.3296703296703,745.0183150183151,-0.639526,0.002869,1.032288,3.200073,4.695435,-8.074951,1,1,1,1,1,84.000000
2024-12-18 12:49:08.761,0.2638444042046226,0.347099934024685,0.4448663281536127,0.420027093896226,0.4461434112240729,0.2928268604563418,0.1187402588443797,0.4193066019345645,0.3546406302666311,0.4375651206875649,0.5783634938999059,0.6455589254603248,0.6784191945307282,0.4281797348379127,0.5947508787927834,0.6219325191387889,0.323492855835228,0.5303406383923331,0.6657110366304871,0.6639494473445063,812.3076923076924,810.6959706959707,809.0842490842491,810.6959706959707,720.4395604395604,666.4468864468864,-0.535767,0.086426,0.865662,-0.657959,2.542114,1.166382,1,2,1,1,2,84.000000
2024-12-18 12:49:09.272,0.2638444042046226,0.4022336045127929,0.5341528588399029,0.420027093896226,0.4461434112240729,0.4111714824271624,0.2872291195201799,0.4193066019345645,0.3546406302666311,0.4229767692553016,0.5733220443122734,0.6455589254603248,0.6784191945307282,0.3971854096494446,0.6456365439039227,0.6219325191387889,0.323492855835228,0.4709409725139681,0.6648729262049029,0.6639494473445063,807.4725274725275,800.6227106227107,805.0549450549451,817.5457875457876,691.8315018315019,317.5091575091575,-0.459290,-0.001831,0.761780,3.887939,-3.289795,-9.099274,1,2,1,1,2,84.000000
2024-12-18 12:49:09.680,,,,,,,,,,,,,,,,,,,,,,,,,,,,,,,,,,,,,,,/muse/elements/blink
2024-12-18 12:49:09.767,0.2638444042046226,0.4434903215962425,0.5797488212338433,0.6247318503434435,0.4461434112240729,0.4410279764688457,0.2911472656945377,0.6636665093509261,0.3546406302666311,0.3788773394614062,0.5657163856749536,1.059274303124047,0.6784191945307282,0.4865183838145705,0.6593862409866329,0.8609755401117984,0.323492855835228,0.4392372337252569,0.6798271857319721,0.7082931033247285,815.5311355311355,801.8315018315019,800.6227106227107,810.6959706959707,869.1208791208792,924.7252747252747,-0.418274,-0.011353,0.734619,-3.977661,-0.650482,-16.247101,1,1,1,1,1,84.000000
2024-12-18 12:49:10.260,0.2638444042046226,0.2760895444445759,0.4489043174313886,0.6247318503434435,0.4461434112240729,0.2784447888587097,0.160054859616291,0.6636665093509261,0.3546406302666311,0.3459604227938915,0.5757617057499449,1.059274303124047,0.6784191945307282,0.4561550577850663,0.5147973623036783,0.8609755401117984,0.323492855835228,0.3490960334306112,0.484037281123564,0.7082931033247285,815.5311355311355,801.025641025641,808.2783882783883,789.7435897435897,1161.245421245421,1515.421245421245,-0.457642,-0.086243,0.762268,-8.919830,0.157013,6.684265,1,1,1,1,1,84.000000
2024-12-18 12:49:10.761,0.1379292442041558,0.2608719513652574,0.4153813266533282,0.6247318503434435,0.5283883836852087,0.1190944118264958,0.1431527812957805,0.6636665093509261,0.8430144600534163,0.2516693393436655,0.2654670466294288,1.059274303124047,0.603032545006143,0.3847113307178409,0.324440055495373,0.8609755401117984,0.4557949231398452,0.2527241708339757,0.4001243476989362,0.7082931033247285,806.2637362637363,801.4285714285714,807.4725274725275,817.1428571428571,1023.443223443223,1183.406593406593,-0.489136,0.036377,0.905579,6.497345,-11.910553,1.757050,1,1,1,1,1,84.000000
2024-12-18 12:49:11.261,0.5690383236261509,0.3666651109488154,0.482869020065241,0.7941391787006619,0.5730004272491357,0.3357029696252758,0.3412860860047863,0.7422031049423136,0.7535867708410848,0.353054053801264,0.2936267169567924,0.2958299951479428,0.4380138622787416,0.297496922265224,0.1626561590211143,0.5433066322072658,0.4319546911402785,0.3058471992622848,0.1591023349377954,0.3877187782625754,741.3919413919414,817.948717948718,813.5164835164835,732.5274725274726,885.2380952380953,987.5824175824176,-0.466797,-0.107666,0.855774,-2.594452,7.222595,-0.373840,1,1,1,1,1,84.000000
2024-12-18 12:49:11.506,,,,,,,,,,,,,,,,,,,,,,,,,,,,,,,,,,,,,,,/muse/elements/blink
2024-12-18 12:49:11.760,0.5690383236261509,0.3842162502084907,0.5960897251810916,0.7941391787006619,0.5730004272491357,0.4429294661685514,0.6157458048344538,0.7422031049423136,0.7535867708410848,0.3462543621739188,0.160474914324703,0.2958299951479428,0.4380138622787416,0.2160378809439678,0.1144678047868195,0.5433066322072658,0.4319546911402785,0.2091148274877811,0.05961561959746237,0.3877187782625754,792.1611721611722,797.3992673992674,791.7582417582418,787.7289377289378,789.3406593406594,702.7106227106227,-0.572571,-0.010681,1.008667,2.168274,-0.441132,-5.428162,1,1,1,1,1,84.000000
2024-12-18 12:49:12.261,0.6437625407938887,0.3880938326141688,0.7787741075593223,0.7941391787006619,0.4941391523548206,0.5425437494677181,0.7679056988319226,0.7422031049423136,0.4709272419914841,0.519889025523285,0.2953794965728683,0.2958299951479428,0.4428460091132173,0.3098549791191565,0.06805410548460013,0.5433066322072658,0.4923446916561388,0.21611389655403,-0.04479494517846415,0.3877187782625754,789.7435897435897,792.5641025641025,785.3113553113553,790.5494505494506,649.1208791208792,307.8388278388279,-0.702759,-0.038940,1.134583,-2.609406,4.157104,-0.964508,1,1,1,1,1,84.000000
2024-12-18 12:49:12.772,0.7003930088068994,0.1977256776307422,0.7533782192214571,0.8201933799401782,0.4896632745432152,0.4518093923943458,0.765442067062213,0.7577668647131812,0.3610046250641233,0.5808366358259291,0.4177548640242901,0.2856488850625858,0.4449305798618018,0.4404626819599819,0.21666372267058,0.4872430331312803,0.5300878239422366,0.1622168125611109,-0.1131543408269193,0.3972192364753325,805.0549450549451,808.2783882783883,809.0842490842491,799.4139194139194,962.1978021978023,1348.205128205128,-0.548218,-0.057190,0.922302,1.966400,1.143951,-7.200165,1,1,1,1,1,84.000000
2024-12-18 12:49:13.272,0.5922638589119017,0.1223135248968391,0.6783043233139207,0.9432415246266881,0.2526740824324253,0.3034706274423472,0.6429366862612164,0.5971150599324275,0.6381966173424369,0.6134871226455721,0.4356093195753755,0.852574702903554,0.7247656810060211,0.5105627533803876,0.2750026233092553,0.8090484792555415,0.2505862036731128,0.2133750610131946,0.009798071145157483,0.6879778725112393,793.3699633699634,795.7875457875458,801.4285714285714,802.6373626373627,605.6043956043957,247.3992673992674,-0.513062,0.016235,0.864502,0.568237,0.904694,-0.822449,1,1,1,1,1,84.000000
2024-12-18 12:49:13.761,0.7552506181526709,0.07136401423667933,0.4337018312175034,0.9977342466749335,0.5626763122899623,0.119448146188407,0.3694883343007682,0.7767227610383639,0.7419663769010539,0.5991678976665996,0.4385243245778594,1.101044338515312,0.7100799167906258,0.620563851200655,0.3605876864575106,0.8113851426659893,0.2290051062392683,0.2322736524343041,0.08241329533588344,0.6634225918447068,808.6813186813187,799.4139194139194,799.4139194139194,805.0549450549451,290.1098901098901,0,-0.424866,-0.059631,0.773193,0.986938,-3.043060,5.114136,1,1,1,1,1,84.000000
2024-12-18 12:49:14.261,0.8237053677633417,0.1889173929171726,0.3694943326080988,1.071092552718293,0.6330545784322338,0.3357643196121736,0.2289472461980771,0.7916314979067913,0.7374411043634213,0.5776658494268816,0.402022869729297,1.099737795213686,0.6844292708952494,0.5195105176538806,0.3619819628238163,0.7942530024364547,0.2555937681508246,0.1713546553559775,0.1900021771949429,0.6664210681897268,796.1904761904763,807.4725274725275,799.4139194139194,809.8901098901099,850.5860805860806,736.959706959707,-0.391724,-0.021118,0.774597,-2.826233,-7.910461,-10.848846,1,1,1,1,1,84.000000
2024-12-18 12:49:14.766,0.9315320506835744,0.184038662056452,0.4514026717315581,1.072797107166234,0.82187774245714,0.411887231450544,0.4084835931805721,0.9647888734634529,0.6576551169397922,0.5859659948723193,0.4059581875075731,1.039152004426065,0.6854981543878415,0.4964432671747808,0.3899234469167148,0.8150978494957847,0.1920765623765463,0.2017928040360011,0.1679305013628147,0.6209957084540376,799.4139194139194,793.7728937728938,796.996336996337,803.8461538461539,734.9450549450549,585.4578754578755,-0.393982,-0.092712,0.758606,-0.912170,-6.295471,9.017029,1,1,1,1,1,84.000000
2024-12-18 12:49:15.263,0.9839853843801419,0.3270144091072033,0.7442918761691181,1.120262031489123,0.8707869818424431,0.6109718904430016,0.764952107903572,1.021636765388077,0.6167793905183622,0.5846648068626961,0.4408404739813903,1.034263154344105,0.7217435390333445,0.4501234423497728,0.3514850095701299,0.834657614984029,0.1956398802339694,0.2500052945600207,0.08557663513668269,0.6560890726127583,784.9084249084249,794.981684981685,803.040293040293,785.3113553113553,1087.912087912088,1237.802197802198,-0.416748,0.011536,0.843811,3.401947,-6.063690,1.988831,1,1,1,1,1,84.000000
2024-12-18 12:49:15.671,,,,,,,,,,,,,,,,,,,,,,,,,,,,,,,,,,,,,,,/muse/elements/blink
2024-12-18 12:49:15.761,0.9839853843801419,0.4113685985613849,0.8500358635075983,1.120262031489123,0.8707869818424431,0.6501136148643654,0.8901610762566327,1.021636765388077,0.6167793905183622,0.6245966677646106,0.566705630450802,1.034263154344105,0.7217435390333445,0.5151356655771482,0.3273108019258162,0.834657614984029,0.1956398802339694,0.2745504307367557,0.1004781476864239,0.6560890726127583,815.1282051282052,795.3846153846154,795.7875457875458,832.0512820512821,1221.684981684982,1563.772893772894,-0.420776,-0.119751,0.788330,2.856140,2.833710,6.796417,1,1,1,1,1,84.000000
2024-12-18 12:49:16.261,0.9839853843801419,0.6271566514583559,0.9996338834994822,1.120262031489123,0.8707869818424431,0.7570153078015138,0.963368879450174,1.021636765388077,0.6167793905183622,0.7882828623882658,0.6971927858972579,1.034263154344105,0.7217435390333445,0.6551392212541632,0.2873279793315298,0.834657614984029,0.1956398802339694,0.480991026501478,0.1251895917330542,0.6560890726127583,810.6959706959707,818.3516483516484,811.9047619047619,813.919413919414,1283.333333333333,1618.168498168498,-0.374084,0.026001,0.753967,11.731110,-3.588867,-3.917847,1,1,1,1,1,84.000000
2024-12-18 12:49:16.763,0.9839853843801419,0.6270101531640194,0.8981238749281005,1.120262031489123,0.8707869818424431,0.6751242329049068,0.7855481610969123,1.021636765388077,0.6167793905183622,0.8036377432610186,0.6885531160396434,1.034263154344105,0.7217435390333445,0.657781463697875,0.2906090772031629,0.834657614984029,0.1956398802339694,0.4602562879443236,0.2036386734788992,0.6560890726127583,726.8864468864469,811.5018315018315,814.7252747252747,723.6630036630037,850.989010989011,1100,-0.367798,-0.087830,0.864075,-0.657959,-7.880554,-3.730927,1,2,1,1,2,84.000000
2024-12-18 12:49:16.980,,,,,,,,,,,,,,,,,,,,,,,,,,,,,,,,,,,,,,,/muse/elements/blink
2024-12-18 12:49:17.272,0.9839853843801419,0.4930407962180113,0.781843189993102,1.120262031489123,0.8707869818424431,0.6115553639031261,0.7810390591508072,1.021636765388077,0.6167793905183622,0.7960884246428676,0.6894451149877964,1.034263154344105,0.7217435390333445,0.6237498447626849,0.3030244007001263,0.834657614984029,0.1956398802339694,0.5160699128395093,0.1919414076270183,0.6560890726127583,794.981684981685,789.3406593406594,797.8021978021978,803.4432234432235,718.021978021978,800.2197802197802,-0.561218,-0.010437,1.116089,0.530853,1.525269,-7.835693,1,2,1,1,2,84.000000
2024-12-18 12:49:17.761,0.9839853843801419,0.2548614671027067,0.6059035114279445,1.120262031489123,0.8707869818424431,0.5513724786201759,0.7684924204623679,1.021636765388077,0.6167793905183622,0.7163054773350791,0.575180153881934,1.034263154344105,0.7217435390333445,0.5080973187968033,0.2810925933439014,0.834657614984029,0.1956398802339694,0.3159571231481278,0.1329482641258019,0.6560890726127583,790.5494505494506,800.2197802197802,790.952380952381,778.4615384615385,554.8351648351648,578.6080586080586,-0.722961,-0.060181,1.174927,-1.562653,5.233765,3.596344,1,2,1,1,2,84.000000
2024-12-18 12:49:18.270,0.9839853843801419,-0.0003308505373082248,0.5895898401380002,1.120262031489123,0.8707869818424431,0.5367439367188153,0.835598637823103,1.021636765388077,0.6167793905183622,0.6507742652490071,0.5269340516368302,1.034263154344105,0.7217435390333445,0.4141343179211367,0.2518555825839219,0.834657614984029,0.1956398802339694,0.2759084223716344,0.002800377120390335,0.6560890726127583,811.5018315018315,795.3846153846154,792.1611721611722,803.4432234432235,839.7069597069598,719.6336996336996,-0.695190,-0.001221,1.092957,2.452393,2.639313,-8.224487,1,2,1,1,2,84.000000
2024-12-18 12:49:18.762,1.007638244641885,-0.1329662813384865,0.6150137174368239,1.120262031489123,0.907118486649576,0.4558830286471556,0.8065213872205469,1.021636765388077,1.311978153522471,0.6289697917949597,0.5289680683932012,1.034263154344105,0.672360061940814,0.30987452889946,0.2471721513267588,0.834657614984029,0.3123599336212054,0.1046538782518543,-0.2370136244867996,0.6560890726127583,807.4725274725275,800.2197802197802,801.8315018315019,805.8608058608058,499.6336996336996,179.3040293040293,-0.568970,-0.024597,0.928101,-0.605621,-0.687866,-1.689758,1,1,1,1,1,84.000000
2024-12-18 12:49:19.097,,,,,,,,,,,,,,,,,,,,,,,,,,,,,,,,,,,,,,,/muse/elements/blink
2024-12-18 12:49:19.259,0.9609129116135102,-0.1743872860272549,0.5900717635954488,1.120262031489123,0.8603791328852866,0.3917255063306549,0.7754215807404732,1.021636765388077,1.311978153522471,0.6188565880610202,0.5577454411574747,1.034263154344105,0.6614153382084436,0.3132777849115927,0.238828121519541,0.834657614984029,0.271679410959308,0.1256997810447083,-0.2636496224450464,0.6560890726127583,789.3406593406594,799.4139194139194,809.8901098901099,805.4578754578755,359.8168498168498,371.9047619047619,-0.442383,-0.049377,0.800537,-1.914062,-4.052429,2.886047,1,1,1,1,1,84.000000
2024-12-18 12:49:19.768,0.8974396694416727,0.008447621894736993,0.6095808057309761,1.120262031489123,0.7267658825865638,0.5611609320813352,0.82041418972251,1.021636765388077,1.288961448854376,0.7197142613758891,0.4298692466071067,1.034263154344105,0.6524317782556213,0.2567745833695514,0.2054597227384865,0.834657614984029,0.2225201177759645,0.1082068294816229,-0.1857210848565513,0.6560890726127583,795.3846153846154,798.6080586080586,799.4139194139194,794.1758241758242,0,0,-0.456970,-0.039734,0.750732,1.659851,3.379517,4.508514,1,1,1,1,1,84.000000
2024-12-18 12:49:20.259,0.6036650965790611,0.264083265199072,0.7063093472186561,1.120262031489123,0.3767814857561317,0.6928674911860614,0.8759854512411962,1.021636765388077,0.9539261332662107,0.7673145497998715,0.6693312174945606,1.034263154344105,0.5744026470592016,0.2645170902293432,0.1214073885983538,0.834657614984029,0.05814765586863291,0.1489730230794262,-0.08092656394301986,0.6560890726127583,842.5274725274726,789.3406593406594,778.4615384615385,820.7692307692308,379.1575091575092,13.6996336996337,-0.435486,-0.056213,0.775269,2.272949,3.663635,10.669403,1,1,1,1,1,84.000000
2024-12-18 12:49:20.434,,,,,,,,,,,,,,,,,,,,,,,,,,,,,,,,,,,,,,,/muse/elements/blink
2024-12-18 12:49:20.758,0.6036650965790611,0.5245502566640425,0.8979059431424448,1.464612911475031,0.3767814857561317,0.9148162197950959,1.068874208737408,1.335961074585492,0.9539261332662107,0.8393737245923409,0.8085292578446143,0.8483979436857819,0.5744026470592016,0.407399086736273,0.2324068105573337,0.7694635676531113,0.05814765586863291,0.2148426637630545,0.06087320282464633,0.5069292526015126,782.4908424908425,809.0842490842491,801.8315018315019,787.3260073260074,559.2673992673992,441.6117216117216,-0.416931,-0.005371,0.771851,-5.846863,-4.441223,-8.007660,1,1,1,1,1,84.000000
2024-12-18 12:49:21.049,,,,,,,,,,,,,,,,,,,,,,,,,,,,,,,,,,,,,,,/muse/elements/blink
2024-12-18 12:49:21.257,0.6036650965790611,0.6401717320546646,0.912966118116079,1.464612911475031,0.3767814857561317,0.9808462444130026,1.179479360852524,1.335961074585492,0.9539261332662107,0.8985047436567379,0.9143819882744988,0.8483979436857819,0.5744026470592016,0.5342778360592357,0.3217559152609493,0.7694635676531113,0.05814765586863291,0.2766837056888585,0.1529514885124162,0.5069292526015126,813.5164835164835,816.3369963369963,803.8461538461539,805.0549450549451,913.8461538461539,928.7545787545788,-0.393188,-0.058228,0.710693,1.263580,-2.930908,12.852631,1,1,1,1,1,84.000000
2024-12-18 12:49:21.756,0.6036650965790611,0.774653707363953,1.03241519697747,1.464612911475031,0.3767814857561317,0.9917853809761714,1.228708517844753,1.335961074585492,0.9539261332662107,0.8590516146802454,0.9857410736795684,0.8483979436857819,0.5744026470592016,0.5930798112175195,0.5161649025932213,0.7694635676531113,0.05814765586863291,0.4609893011898428,0.2612133559819268,0.5069292526015126,782.893772893773,780.0732600732601,792.5641025641025,777.2527472527473,1622.197802197802,1622.197802197802,-0.367188,0.075500,0.883118,6.123505,6.953430,-5.996399,1,1,1,1,1,84.000000
2024-12-18 12:49:22.256,0.6036650965790611,0.7006603935583614,0.9857600499842462,1.464612911475031,0.3767814857561317,0.9624590746909488,1.229655653787393,1.335961074585492,0.9539261332662107,0.843170280673105,1.021618179993049,0.8483979436857819,0.5744026470592016,0.6982992676458255,0.765437041245068,0.7694635676531113,0.05814765586863291,0.5824489903846736,0.2882293950313877,0.5069292526015126,797.3992673992674,809.8901098901099,805.4578754578755,809.0842490842491,1622.197802197802,1622.197802197802,-0.372620,-0.090820,0.790283,8.202057,3.401947,-3.641205,1,1,1,1,1,84.000000
2024-12-18 12:49:22.755,0.2437055685438257,0.5809969411781349,1.021133287628101,0.871326548878137,0.7867843440210091,0.9507116280144235,1.262015158171828,1.505068092529064,0.9910531219913412,0.9154917810739728,0.9944747686893948,0.7377644467844611,0.9308513038689999,0.705467626535894,0.8049522600270962,1.141211687272217,0.4961229919260928,0.6247632181097993,0.2588237631662799,0.5504820014142858,812.3076923076924,801.025641025641,831.2454212454213,818.7545787545788,1560.14652014652,1622.197802197802,-0.544983,0.010010,0.982727,1.831818,-5.787048,-0.605621,1,1,1,1,1,84.000000
2024-12-18 12:49:23.255,0.1467259652660581,0.2739881037182088,0.9357542948685271,0.8996928106108573,0.7521674570994323,0.9106170980621402,1.240564580577242,1.399100609516585,0.9934204076957188,0.8473637828175354,0.9625743380247981,0.9262020060071521,0.9096626785680904,0.7019610124515836,0.7641834848860991,1.020160390747469,0.4321109289634523,0.5485266003521199,0.1773624759031949,0.5573146893893084,805.0549450549451,802.2344322344322,799.4139194139194,771.6117216117216,655.1648351648352,543.956043956044,-0.565552,-0.095276,1.036743,8.882446,-1.084137,-6.676788,1,1,1,1,1,84.000000
2024-12-18 12:49:23.765,0.3322407643486252,0.3188743388766895,0.9614215539365755,0.8997968786032032,0.6831610548868101,0.7517088943612696,1.17707652048962,1.321993578052075,1.600307820663785,0.7332926050862646,0.8283968207815868,1.302629104637431,1.215925857781394,0.5388198044360567,0.4809940726448225,0.9889062787126544,0.4527561707907367,0.3814577428875306,0.09482160176986791,0.5805273594842437,799.4139194139194,803.040293040293,802.2344322344322,804.6520146520147,754.6886446886447,692.6373626373627,-0.518311,-0.003052,0.987183,-2.863617,-3.431854,-6.295471,1,1,1,1,1,84.000000
2024-12-18 12:49:24.260,0.3679164500897109,0.331381522907546,1.007177482991121,0.9619875303877845,0.6452378936329517,0.549381324922315,1.056311846757556,1.147271018885626,1.616846324588976,0.6022846222705629,0.8037015496003358,1.310564240749061,1.299237842970515,0.4164524904473055,0.4242384408537436,0.8830688058731324,0.4365150670502047,0.2681759440494715,-0.006366580843806659,0.5463093860204727,806.2637362637363,808.2783882783883,806.2637362637363,807.0695970695971,547.5824175824176,288.0952380952381,-0.595032,0.012268,0.986572,-4.029999,-0.829926,3.185120,1,1,1,1,1,84.000000
2024-12-18 12:49:24.756,0.5139088642087771,0.3446090726261382,0.9690532055193486,0.9709108613811473,0.5069548389425699,0.3562962088285441,0.9124269313225222,1.02765295455684,1.61140147468051,0.3838541645194473,0.8593867547013296,1.309877066215305,1.284510546709996,0.3529662110248954,0.3677037920947596,0.8520619407503535,0.3449278357346212,0.09279728001302705,-0.0808995931415515,0.5121293430340785,800.2197802197802,798.2051282051282,816.3369963369963,801.8315018315019,919.4871794871796,1351.831501831502,-0.530396,-0.037415,0.994812,-2.833710,3.663635,0.014954,1,1,1,1,1,84.000000
2024-12-18 12:49:25.252,0.3566173386224484,0.3474222169376446,1.056867240354102,1.1001603046287,0.4014727333978196,0.3826636082897355,0.8786545297223169,0.9279871529842711,1.56997376528423,0.4176148902164265,0.8736868418010266,1.186380119419794,0.9885252697509127,0.3410644923159548,0.3865221018204381,0.7707845896023475,0.1802570162691974,0.02394223413883622,-0.141572629200516,0.4323367629892788,798.2051282051282,785.3113553113553,787.7289377289378,818.3516483516484,0,0,-0.465332,-0.016235,0.856018,5.136566,-0.186920,-4.867401,1,1,1,1,1,84.000000
2024-12-18 12:49:25.752,0.2183445708761399,0.3095972390458396,0.9920896657675223,1.070151945847188,0.3056260347573216,0.3992496573539551,0.8433176125469802,0.9728774036517556,0.9999403132010306,0.4357136443211957,0.8240323782685909,1.084935245528629,0.4797164033707505,0.4099721031770623,0.3536929956318418,0.6598310350079225,-0.03642051919832503,-0.01633739264497934,-0.1273093833321097,0.4824805709355319,807.0695970695971,807.0695970695971,793.3699633699634,810.2930402930403,69.3040293040293,0,-0.393127,-0.005859,0.732239,4.837494,9.562836,-1.592560,1,1,1,1,1,84.000000
2024-12-18 12:49:26.251,0.253957276167163,0.2137424314243498,1.033081273626283,1.095003910542688,0.2890262526598724,0.4410656107515699,0.8531940057941194,0.8889940672688031,0.9747208335685822,0.4307839719753494,0.8694141306403914,1.033518916206296,0.5280364198368656,0.4866542303902373,0.3528374843115913,0.6533292007553072,0.1668005384650922,-0.02329549795667282,-0.06987892166931461,0.4753073584555201,782.0879120879121,790.5494505494506,802.2344322344322,769.5970695970697,799.0109890109891,663.2234432234433,-0.361389,0.015686,0.818298,-3.858032,-15.783539,-1.054230,1,1,1,1,1,84.000000
2024-12-18 12:49:26.761,0.4983397978273084,0.2165937806686972,0.878252587482127,1.036038339517057,0.3887739490273273,0.3939262383319401,0.8659606415881903,0.8094596180084725,0.9163007352391941,0.3203831866754558,0.8272151735820582,0.7801243852947087,0.5589550321293593,0.5033270041889982,0.3347688544189069,0.7459616374173728,0.4374481943609002,0.07101086789357285,-0.02127863867967836,0.5782818450479293,797.3992673992674,813.1135531135532,794.1758241758242,800.2197802197802,1243.846153846154,1608.498168498169,-0.382568,-0.020447,0.763855,-3.506622,-4.590759,14.228363,1,1,1,1,1,84.000000
2024-12-18 12:49:27.250,0.5770832749810126,0.1772535336823828,0.9443769976457976,1.092406667288976,0.5419599640719218,0.4634743656286176,0.9782966558390552,0.586701731606543,0.8746049048712008,0.2927687755082479,0.8351169224843561,0.8620394962151846,0.6276413702328325,0.5058628475435536,0.384171833263429,0.7947201091424785,0.5229634418795374,0.1869995040890912,0.133963134974545,0.6111268906576394,746.6300366300367,800.2197802197802,801.8315018315019,747.032967032967,1623.406593406593,1622.197802197802,-0.467163,0.061401,0.828674,0.246735,-8.179626,-3.760834,1,1,1,1,1,84.000000
2024-12-18 12:49:27.474,,,,,,,,,,,,,,,,,,,,,,,,,,,,,,,,,,,,,,,/muse/elements/blink
2024-12-18 12:49:27.750,0.5949647276198707,0.4336154271252664,0.9974801894272761,1.137487117932042,0.6290572626200229,0.5686481895626009,1.060430078055237,0.8476474164023212,0.69893273947976,0.4541537839481132,0.79427069520069,0.9373124595075351,0.6563240890145128,0.4878103808456992,0.3404118532475402,0.8192571610185161,0.5819446825641476,0.2567863035714633,0.1586775039640055,0.7129228900611982,796.996336996337,792.5641025641025,792.1611721611722,792.967032967033,1621.794871794872,1622.197802197802,-0.364624,-0.100586,0.961426,1.555176,2.026215,3.611298,1,1,1,1,1,84.000000
2024-12-18 12:49:28.249,0.445166865103331,0.5571360869135571,1.106919041546866,1.1994075658632,0.7160208254699899,0.755442320817984,1.110926158560341,0.912207369885097,0.5431644250286625,0.7341164001189451,0.6189956072007831,0.9180764561668983,0.6904314884777515,0.5666487758781468,0.3586411888304944,0.7313633933226119,0.4541765140855426,0.341722013799649,0.2261392863047439,0.7131499991481439,784.1025641025641,794.981684981685,801.8315018315019,799.0109890109891,1384.871794871795,1622.197802197802,-0.407471,0.009766,0.963928,-1.487885,6.549683,-0.508423,1,1,1,1,1,84.000000
2024-12-18 12:49:28.749,0.3872759088962273,0.6412440996348334,1.020083580891421,1.009238472150815,0.7089066910231839,0.7457118309211845,1.00411157841693,1.044150094174773,0.5083913649163848,0.7718081392064213,0.4628721483475806,0.9361215379913469,0.6794302616061525,0.6536386174512183,0.3094610742923923,0.7260951995735757,0.4330058209118005,0.3321536625270239,-0.007711112056512637,0.5069487915806267,791.7582417582418,789.7435897435897,796.996336996337,785.7142857142858,624.5421245421246,379.5604395604396,-0.493408,-0.074219,0.886658,-4.269257,16.359253,4.239349,1,1,1,1,1,84.000000
2024-12-18 12:49:29.258,0.6227344403576882,0.5535415150092358,0.7835813714744517,0.8775715463325937,0.5756061620103329,0.6634524637111099,0.9217885968531936,0.9836705953436478,0.7942778844897996,0.7797334861080485,0.3911990815259588,0.9494331281374422,0.7762808138583944,0.6969486529908532,0.2982064616398098,0.7523396005598223,0.3760913218474825,0.3146947527211682,0.1591340617499285,0.5532688560812971,794.1758241758242,784.1025641025641,784.9084249084249,788.1318681318681,769.5970695970697,981.1355311355312,-0.598145,-0.073730,0.909302,1.487885,2.272949,-5.233765,1,1,1,1,1,84.000000
2024-12-18 12:49:29.748,0.6460740346944672,0.5780628636682339,0.9368940170500939,1.079742965082812,0.5965260792561893,0.5522529749912338,0.943696738284759,0.9983399662868094,0.7942778844897996,0.6979603697582805,0.4469078968967654,0.9494331281374422,0.7626048847844845,0.6515140849544072,0.257728297073553,0.770562113892672,0.334573574577351,0.1996260950858693,0.1013565996919613,0.4799292092264294,798.2051282051282,807.8754578754579,804.2490842490843,799.8168498168499,18.13186813186813,98.31501831501832,-0.531555,0.000854,0.864197,-2.512207,-1.338348,5.562744,1,1,1,1,1,84.000000
2024-12-18 12:49:30.248,0.6007426841170166,0.6929793389445618,0.9769613000235653,1.115490881532992,0.6563702568477923,0.5769614081287937,0.964678507137689,1.079256581669621,0.6330966823094799,0.4237222766251301,0.5147983701883775,0.8858525833521878,0.7154030042772345,0.5296983966888755,0.384570508679621,0.8225390709402508,0.2911553479773809,0.1592132056792021,0.1102190197297742,0.4424380210837819,817.948717948718,817.948717948718,806.6666666666667,810.2930402930403,59.23076923076923,0,-0.512939,-0.038147,0.868408,6.602020,-0.904694,9.547882,1,1,1,1,1,84.000000
2024-12-18 12:49:30.559,,,,,,,,,,,,,,,,,,,,,,,,,,,,,,,,,,,,,,,/muse/elements/blink
2024-12-18 12:49:30.748,0.6677893974172218,0.7648505140543438,1.197273183757628,1.218097800147059,0.6870800206416615,0.7624428642317371,1.074673369311807,1.173370609840894,0.7041501777396287,0.471572256489187,0.6366281116808753,0.9549820078432549,0.7541245934838722,0.4018261045090156,0.4753199091868201,0.8680215870011389,0.2744209580858866,0.1482679729688442,0.008865561511788661,0.3409474532478946,801.8315018315019,783.6996336996338,790.952380952381,791.7582417582418,0,0,-0.485718,-0.000732,0.791748,-2.355194,0.134583,-3.461761,1,1,1,1,1,84.000000
2024-12-18 12:49:31.259,0.6613201434343009,0.6969418271324278,1.219900821283664,1.142263735158177,0.6749482221124692,0.7999273031486712,1.086935063655506,1.254273549137007,0.6988140131472665,0.471572256489187,0.6386564914196954,0.9545918448875115,0.7601570013485145,0.3728408500267306,0.5660959782175304,0.9191410686843707,0.2807427647264255,0.1816058812935343,0.04443501734905134,0.3539039297488032,798.6080586080586,799.0109890109891,786.1172161172161,796.996336996337,503.6630036630037,60.84249084249085,-0.404724,-0.018433,0.790344,0.650482,1.398163,7.641296,1,1,1,1,1,84.000000
2024-12-18 12:49:31.746,0.7091516526190758,0.5243301434113017,1.21172844903301,1.150691389729646,0.6051543681001754,0.8235588880891779,1.155025031177822,1.249352750501376,0.6042341633968008,0.5068999049292148,0.6520850221878393,0.944347341466434,0.7913626745514073,0.3341962532981292,0.495625666089594,0.9103696211663822,0.3301826685422798,0.3411080915376793,0.1684786496804003,0.3736647504726228,818.7545787545788,792.967032967033,786.1172161172161,803.8461538461539,933.992673992674,903.3699633699634,-0.445923,-0.020508,0.805786,-0.014954,-17.420959,-8.568420,1,1,1,1,1,84.000000
2024-12-18 12:49:32.246,-0.02924158758217819,0.2289123059545906,0.9883516768527084,0.9684529860142836,0.4064936946020066,0.4832565713375472,1.135250071857958,0.9936861265002802,0.4437325598571871,0.4940626026638692,0.5197580680514293,0.5356073620901518,0.6412999881586201,0.393914075191121,0.4746840451793549,0.8679255814529402,0.4786522116908338,0.4509378821045507,0.2327604514699498,0.5487513610782779,790.952380952381,799.8168498168499,783.6996336996338,799.4139194139194,1623.003663003663,1621.794871794872,-0.435547,-0.071167,0.853760,-4.007568,-4.553375,2.699127,1,1,1,1,1,84.000000
2024-12-18 12:49:32.758,-0.1374168114132366,0.2709558767374191,1.053104910416661,1.000522244462567,0.328012505954936,0.472054888320828,1.15326654157009,1.066043294566925,0.5282744130074268,0.5559429065758398,0.5788150934672376,0.8333076099394268,0.629977129711116,0.4090143707938554,0.440418831798649,0.8373321923592593,0.5053907242742235,0.4029971653735053,0.2528443233362944,0.5683176904858989,806.2637362637363,803.4432234432235,803.040293040293,804.2490842490843,1622.197802197802,1621.794871794872,-0.514587,0.026245,0.795166,14.804077,-0.904694,-4.934692,1,1,1,1,1,84.000000
2024-12-18 12:49:33.253,-0.03601647597709484,0.2368920717001557,1.025112972088576,1.007108207966278,0.2932646449961715,0.3892365158028772,1.087747917854366,1.062572386674954,0.5538081620272103,0.5207832511518661,0.5570858337593413,0.8427556398195029,0.5876582131532182,0.4618955439329892,0.4024037101113889,0.7825853818328212,0.4498657051884075,0.2995959451234844,0.175740505680391,0.5481343872729529,854.6153846153846,809.4871794871796,806.6666666666667,887.2527472527473,1513.003663003663,1622.600732600733,-0.372620,-0.093323,0.840332,9.039459,-13.308716,-5.884247,1,1,1,1,1,84.000000
2024-12-18 12:49:33.333,,,,,,,,,,,,,,,,,,,,,,,,,,,,,,,,,,,,,,,/muse/elements/blink
2024-12-18 12:49:33.711,,,,,,,,,,,,,,,,,,,,,,,,,,,,,,,,,,,,,,,/muse/elements/blink
2024-12-18 12:49:33.747,-0.02920196598212623,0.3813616956752164,1.006563995706001,1.055434279929282,0.1921521880009646,0.6166138720698638,1.231623452286234,1.112054806341674,0.5459022189827328,0.7016935964658406,0.5704763368419791,0.8392477373731505,0.5464527601504358,0.6360982738716734,0.3887400519018302,0.7279717093660706,0.4233468103629712,0.224143672592556,0.2708417376113998,0.5315478705244756,781.2820512820513,788.9377289377289,806.2637362637363,804.6520146520147,697.0695970695971,994.0293040293041,-0.543945,-0.036987,1.042664,-1.600037,1.121521,-1.061707,1,1,1,1,1,84.000000
2024-12-18 12:49:34.245,0.1672163945828094,0.4760578637076263,0.890701935085602,1.087204396826435,0.1233819693559561,0.6921431769539722,1.254470584280013,1.111947459723663,0.3419395699426936,0.7142074866073933,0.4746227138474506,0.7521001795951059,0.4354127416724416,0.9000838726165827,0.4026470939021078,0.5839785645377982,0.21207157713917,0.3750520273557989,0.2595688622494132,0.4197733359688054,806.6666666666667,817.948717948718,783.2967032967033,793.3699633699634,853.8095238095239,1058.095238095238,-0.650940,0.019165,1.060242,0.471039,3.342133,2.018738,1,1,1,1,1,84.000000
2024-12-18 12:49:34.745,0.1672163945828094,0.5487946638517307,0.9669488703355187,1.087204396826435,0.1233819693559561,0.7736293873415366,1.498165237830852,1.111947459723663,0.3419395699426936,0.6847992458949659,0.3380207740601562,0.7521001795951059,0.4354127416724416,1.040129867884613,0.5035137545523352,0.5839785645377982,0.21207157713917,0.4937550555594974,0.4206981711903451,0.4197733359688054,793.3699633699634,803.4432234432235,806.2637362637363,809.4871794871796,555.2380952380953,352.5641025641026,-0.439758,-0.037903,0.812012,-1.884155,-1.525269,4.987030,1,1,1,1,1,84.000000
2024-12-18 12:49:35.252,0.6016472362099052,0.6761952787019129,0.9669488703355187,0.6910513007880752,0.7141307260526392,0.6109104393968864,1.498165237830852,1.128069570172755,0.9390676319665906,0.5390957216672921,0.3380207740601562,1.253314945888015,0.8936956354205189,1.001810848863168,0.5035137545523352,0.9629537161882813,0.5849187730432027,0.4824355744609135,0.4206981711903451,0.8442763277581724,821.1721611721612,809.0842490842491,810.2930402930403,823.1868131868132,0,36.66666666666666,-0.469788,-0.014832,0.776794,0.814972,1.794434,0.127106,1,1,1,1,1,84.000000
2024-12-18 12:49:35.744,0.6675501751575238,0.6017049757999757,0.6673152115330967,0.7911357947456626,0.5719361010601482,0.4825251252814658,0.9539272819014539,1.070849864910113,0.94283884706013,0.2680170611007865,0.4134755481704758,1.288365498053336,0.804204424284373,0.6308864883709225,0.3868400520766038,0.8914167266454872,0.6843705499024615,0.1446752337424477,0.1338298825686455,0.7965360616782321,790.5494505494506,805.0549450549451,786.9230769230769,786.1172161172161,332.014652014652,30.62271062271062,-0.417480,-0.037720,0.763062,5.802002,-2.856140,-0.635529,1,1,1,1,1,84.000000
2024-12-18 12:49:36.244,0.6856858664954824,0.5587865649290124,0.7715673018474979,0.9628449240185182,0.569414043302562,0.4179092831997775,0.8660554196403696,0.9980021024572913,0.964732843225547,0.4396170083620694,0.4244037042322207,1.163916991105979,0.7706159343715042,0.5401846129883872,0.3361529653920395,0.8332005388070449,0.6578065994975876,0.1681736941658973,0.08673888386854486,0.7101482975383295,799.0109890109891,809.4871794871796,804.2490842490843,799.4139194139194,516.5567765567765,439.5970695970696,-0.402405,0.009766,0.775146,-5.861816,-8.785248,-2.841187,1,1,1,1,1,84.000000
2024-12-18 12:49:36.546,,,,,,,,,,,,,,,,,,,,,,,,,,,,,,,,,,,,,,,/muse/elements/blink
2024-12-18 12:49:36.744,0.6859521675318401,0.4388331093948178,0.9372131839413701,1.102708001914798,0.4735554650617678,0.4549272878715331,0.9293092413101077,0.9534113587647658,0.4199981463481512,0.4401201363642988,0.403299253982028,0.9484014587482293,0.7018251545619817,0.5225498626113562,0.3810954214132453,0.8700885658378222,0.6759525808315104,0.2699707748028076,0.1531447481086658,0.7217030239809249,806.6666666666667,819.1575091575091,800.2197802197802,808.2783882783883,963.8095238095239,1026.666666666667,-0.396240,-0.023132,0.791870,2.676697,-8.037567,10.183411,1,1,1,1,1,84.000000
2024-12-18 12:49:37.244,0.6580110398138367,0.4523168285432267,1.035727973969293,1.184559388522313,0.5359178744448003,0.4273067218121534,0.9781412498069509,0.9700558210029119,0.3480698845167851,0.4608319497745555,0.30434294034575,0.7485072907045331,0.7086672845921733,0.501211596183445,0.427685551495541,0.9554544694400916,0.6042642999057192,0.3927974717131469,0.264160481635011,0.7464747473901483,804.2490842490843,802.2344322344322,806.2637362637363,803.8461538461539,1237.399267399268,1593.589743589744,-0.416931,0.047363,0.797424,12.104950,-20.703278,-2.796326,1,1,1,1,1,84.000000
2024-12-18 12:49:37.743,0.4382636477978673,0.3602993303636792,0.9947505451509979,1.206298433177703,0.500303193164753,0.3935819271815219,0.9576204961721729,0.9653506424953144,0.3000648510332484,0.4369473760824191,0.2791703628593005,0.6281126733364342,0.7102405110187668,0.5044660502468292,0.4502389444757384,1.020174595770027,0.6123154344230478,0.4261669041907973,0.2525204654774926,0.753350579804423,794.1758241758242,796.996336996337,804.6520146520147,796.1904761904763,1621.794871794872,1622.197802197802,-0.372192,-0.081482,0.939087,1.300964,-7.536621,-0.254211,1,1,1,1,1,84.000000
2024-12-18 12:49:38.250,0.7056849001434191,0.3308524645784562,0.8785436999203866,1.010195657350982,0.6492582430542461,0.4006033365524045,0.9550678418272212,1.022179382101477,0.5843355805629897,0.4970008011661831,0.4858996672660801,0.8436626399314071,0.4663077262093933,0.4266833140411153,0.4356220349306845,0.6300381870401969,0.1218568012144308,0.375226480073253,0.195211871444646,0.4586145318910582,815.934065934066,808.6813186813187,821.1721611721612,834.0659340659341,1534.358974358974,1622.197802197802,-0.457947,0.006958,0.870422,2.953339,4.127197,0.164490,1,1,1,1,1,84.000000
2024-12-18 12:49:38.744,0.5883172489560572,0.292986225171004,0.7442924727712158,0.9711918146774949,0.507762250863763,0.5063658536031447,0.9518987701575757,1.012918043071561,0.638427635987543,0.4830504829900296,0.4780824355750068,0.8799564563942347,0.5800961088953444,0.3478002671783511,0.4691141067817052,0.6164735384542817,0.1360841971292508,0.2901959488969508,0.02061891996296745,0.5166184076477465,820.3663003663004,792.5641025641025,788.5347985347986,786.1172161172161,744.6153846153846,945.6776556776557,-0.441772,-0.022888,0.917175,5.944061,2.616882,-0.336456,1,1,1,1,1,84.000000
2024-12-18 12:49:39.243,0.4934335404550155,0.3920648696545372,0.6116538919615123,0.9211910368418226,0.3815320488289253,0.5652972556521659,0.9637919990814781,0.9401155382459156,0.6296831049672202,0.5019570138030242,0.4635632722271344,1.01233717056931,0.655472222352642,0.3378486998400843,0.5101551290151678,0.8107887102813452,0.2389276191456135,0.2233311842380151,-0.04240788739027972,0.4967311445931858,791.3553113553114,800.6227106227107,800.2197802197802,786.9230769230769,1012.967032967033,985.1648351648352,-0.641907,-0.022400,1.112793,-0.366364,3.289795,-1.480408,1,1,1,1,1,84.000000
2024-12-18 12:49:39.602,,,,,,,,,,,,,,,,,,,,,,,,,,,,,,,,,,,,,,,/muse/elements/blink
2024-12-18 12:49:39.742,0.3214740387420195,0.442291551512341,0.6162415465162167,0.8535064927004921,0.169254435562969,0.5462303171207002,0.8682941646359849,0.8941297240586542,0.6004867612057322,0.4836556068912218,0.4166057569286008,0.986977746454003,0.7266835595093686,0.2993357878348667,0.4713641677343559,0.8893486395324537,0.292885514103468,0.2229392005252735,-0.09887056823109619,0.4957374998040607,809.4871794871796,796.996336996337,802.2344322344322,818.3516483516484,158.3516483516484,0,-0.493958,-0.034424,0.851990,0.231781,1.876678,-0.859833,1,1,1,1,1,84.000000
2024-12-18 12:49:40.252,0.2592105765978023,0.4177380347694794,0.5752383612439685,0.779490081248021,0.1018157296776665,0.4703817989762866,0.7742283733731979,0.7757761740700392,0.472223247940823,0.3868775381390222,0.5996452458718785,0.7598321095850102,0.7577927924128383,0.2783422004908113,0.4496599614699278,1.036364389896945,0.382820194760622,0.1535082648244951,0.06257832072222738,0.4249704426511817,787.3260073260074,789.7435897435897,798.2051282051282,775.6410256410256,346.5201465201465,0,-0.446960,-0.001099,0.852966,-0.710297,-0.986938,2.572021,1,1,1,1,1,84.000000
2024-12-18 12:49:40.742,0.02463402301715341,0.2703247938154193,0.6922556638546175,0.6920196375517119,0.1197737281525327,0.4832619515968319,0.8346409516613268,0.831166080731952,0.4424630077982999,0.3158943025372712,0.6743764643134719,0.7486281607271228,0.7409241020365619,0.5350333953686857,0.483866810551549,1.083753348467887,0.3697397636145399,0.2576342031399923,0.1643119301730181,0.3858807954060855,788.9377289377289,797.8021978021978,799.0109890109891,787.7289377289378,35.05494505494506,0,-0.444519,-0.022339,0.771912,1.016846,-4.067383,-6.078644,1,1,1,1,1,84.000000
2024-12-18 12:49:41.242,0.3008704457555834,0.1357095427198406,0.8230531025633306,1.055286931400066,0.07824234943383067,0.4550220755695316,0.9452360786926468,1.007451417682224,0.5652966495373432,0.3529337239410178,0.7278417544919674,0.8772796093736317,1.034286152894092,0.6838063697959152,0.5426708343452012,1.150418356616276,0.780075834376743,0.1848691831651594,0.2755697777695016,0.7941328822347019,795.7875457875458,803.8461538461539,799.0109890109891,786.1172161172161,397.2893772893773,120.4761904761905,-0.424377,0.000977,0.769165,1.884155,0.605621,7.349701,1,1,1,1,1,84.000000
2024-12-18 12:49:41.752,0.3123994982325269,0.1590073125935069,0.9295259704625315,1.051110269768408,0.08212504824871192,0.4083621005620688,0.9843578355706231,1.081056029731131,0.6066560810825752,0.4689024709068677,0.7261481920616319,0.9529276363130086,0.8823300560321368,0.6692184064624951,0.5618462726261366,1.063772003217551,0.6943700358538347,0.2237000578313521,0.2444576715480372,0.7262365705099976,795.7875457875458,807.4725274725275,792.5641025641025,802.2344322344322,973.4798534798535,1373.589743589744,-0.397583,0.035828,0.902161,5.861816,-15.783539,-4.261780,1,1,1,1,1,84.000000
2024-12-18 12:49:42.248,0.5095758405193949,0.3524948467650906,0.945381017170849,1.002013844454333,0.3692944906753406,0.3213867691522942,0.8559610385047887,0.9913691006384608,0.7939752550076855,0.5948907343757779,0.6879424128696453,1.040899223902457,0.8394306865792044,0.6134479103907258,0.579343291359227,0.9844374498571564,0.6000948246241365,0.242708597826693,0.2549340676683166,0.7093500624253487,787.3260073260074,794.5787545787546,792.5641025641025,799.0109890109891,1622.197802197802,1621.794871794872,-0.453918,-0.097412,0.832886,-2.370148,3.723450,5.824432,1,1,1,1,1,84.000000
2024-12-18 12:49:42.750,0.5832507189816901,0.5011363151176538,0.9462752704257045,0.9966406109337091,0.6243827790457043,0.5901295852651092,0.8709657223476523,1.07552480222374,0.8678758415224339,0.729021228592828,0.6948928258227018,1.270813908579417,0.7073921852578424,0.5299729772258253,0.5573336398734242,0.9017599541414937,0.4437323919914133,0.2698494749703398,0.2440535461217514,0.6376072170754671,826.8131868131868,805.4578754578755,823.1868131868132,804.6520146520147,1622.197802197802,1622.197802197802,-0.450623,0.029175,0.886169,1.016846,-0.807495,3.334656,1,1,1,1,1,84.000000
2024-12-18 12:49:43.167,,,,,,,,,,,,,,,,,,,,,,,,,,,,,,,,,,,,,,,/muse/elements/blink
2024-12-18 12:49:43.240,0.6718788595749119,0.5323062598421789,0.9533257800391731,1.024458022203504,0.7447043693275852,0.7001392245171281,0.9684767549447407,1.109185465023901,0.959434450845019,0.7348573701323149,0.7772372412265909,1.36533546906543,0.7228587251992478,0.5001195364493803,0.5167426990652521,0.8873007799679442,0.4741141366994251,0.2981385375662999,0.2995061551958793,0.6500582789124015,814.3223443223443,811.5018315018315,813.5164835164835,822.7838827838829,1131.831501831502,1571.831501831502,-0.514099,-0.001587,0.973450,1.839294,9.652557,-4.291687,1,1,1,1,1,84.000000
2024-12-18 12:49:43.752,1.12114181743462,0.5178231873806033,0.9940308428598543,1.086450352995975,1.056139870271008,0.8388271327873454,1.167797908160507,1.223501959027843,1.216450638135119,0.7122072795447201,0.8705402044107159,1.36533546906543,0.7197629723245335,0.4656192833349809,0.476785335627779,0.9277095748503905,0.5673253976062947,0.4123673470472115,0.3659840672079321,0.6269702515451804,815.1282051282052,787.3260073260074,799.0109890109891,816.7399267399268,460.1465201465202,0,-0.632507,-0.018250,1.141541,-1.151428,7.274933,-5.203857,1,1,1,1,1,84.000000
2024-12-18 12:49:43.859,,,,,,,,,,,,,,,,,,,,,,,,,,,,,,,,,,,,,,,/muse/elements/blink
2024-12-18 12:49:44.240,1.273637837062862,0.5272884511202237,1.182307254257286,1.171453298797894,1.171607588320188,0.8382706612086311,1.239902374342365,1.366374863259381,1.216351012661778,0.7392140661942768,0.901743646779433,1.357774594231752,0.6871261918141467,0.6024931813215666,0.489758651339172,0.897476470903346,0.6630369792127312,0.4592281299900828,0.3540459078737392,0.6065974788599926,805.0549450549451,811.0989010989011,821.5750915750916,826.4102564102565,0,0,-0.663818,0.022095,0.987305,0.186920,-2.452393,0.276642,1,1,1,1,1,84.000000
2024-12-18 12:49:44.741,1.505168768932494,0.5353765082315652,1.240414630814175,1.171453298797894,1.316462658849051,0.8611631375326171,1.22711469517632,1.366374863259381,1.216351012661778,0.7458850069811924,0.8619025327115821,1.357774594231752,0.75113294769148,0.6672861026789091,0.551780827185379,0.897476470903346,0.7543516084705996,0.4441877579967344,0.2952177220753603,0.6065974788599926,807.4725274725275,811.0989010989011,804.2490842490843,803.040293040293,0,2.417582417582418,-0.469727,-0.012939,0.731567,1.069183,3.297272,5.831909,1,1,1,1,1,84.000000
2024-12-18 12:49:45.240,0.4936484705635875,0.4289956258389828,1.286192629749141,0.694646499438954,1.010422094422116,1.064333457834481,1.176579879130132,1.445292311783117,0.735558048497473,0.7443582830941434,0.7149029552262758,0.7166479116081362,0.9234708105012114,0.7209156234423816,0.6088541998452395,1.00115989196246,0.2932568360156291,0.2871765416096149,0.1850393315925951,0.7643290577325249,794.1758241758242,801.4285714285714,787.3260073260074,794.5787545787546,0.4029304029304029,0,-0.438782,-0.006287,0.736084,-1.226196,2.310333,-2.370148,1,1,1,1,1,84.000000
2024-12-18 12:49:45.740,0.3716882153182584,0.2552451746895587,1.140983288870193,0.7886801003909808,0.817119322481859,1.069587925834413,1.219283423850169,1.371983299428373,0.8083091554755424,0.7062925177602828,0.686305985804971,0.7448530195958567,0.7774481363186249,0.6202950558730159,0.6135781796375185,0.9992775669417184,0.384104871242615,0.2481755689751534,0.1877999945418752,0.6412489395334491,788.1318681318681,792.5641025641025,798.2051282051282,788.5347985347986,755.8974358974359,428.7179487179487,-0.423218,-0.041504,0.759644,4.665527,1.958923,-0.171967,1,1,1,1,1,84.000000
2024-12-18 12:49:46.240,0.3477667076287753,0.2091244186780617,1.002142004276181,0.9218699089155737,0.6998042652286564,1.006129531180509,1.133432321093158,1.250945710795594,0.9468520167791097,0.5356747984755913,0.4258870971907748,0.8249953168897235,0.727062701279114,0.5225402691710346,0.5535069879284712,0.9236348075214836,0.3897494021617323,0.215471494222892,0.1440959937372858,0.6933749609374739,811.0989010989011,827.2161172161173,771.6117216117216,806.6666666666667,947.2893772893773,1046.007326007326,-0.400269,0.040527,0.756775,2.751465,-14.774170,-6.467438,1,1,1,1,1,84.000000
2024-12-18 12:49:46.291,,,,,,,,,,,,,,,,,,,,,,,,,,,,,,,,,,,,,,,/muse/elements/blink
2024-12-18 12:49:46.746,0.2722100979691469,0.4408066024077181,0.986825690814336,1.139161949677144,0.4648333191429955,0.6566846120697051,1.140935577349027,1.289038411154627,0.7636861261419364,0.3238485640493721,0.4112002679783924,0.9820374818311002,0.6142659469533605,0.3894398129485886,0.4296396644280561,0.8632420197455061,0.4230493925920912,0.2085849816911879,0.1645113301200426,0.6395453416541318,820.3663003663004,803.8461538461539,799.8168498168499,795.7875457875458,1412.673992673993,1546.849816849817,-0.367371,-0.051758,0.747681,2.257996,-10.175934,11.035767,1,1,1,1,1,84.000000
2024-12-18 12:49:47.241,0.3010779894823591,0.5344005744679493,1.038593104849387,1.254006196377933,0.3449929988442323,0.4312407841854319,0.9505076875647914,1.280159284664403,0.7636861261419364,0.2895686016989157,0.3152759134103117,0.9595645997077036,0.618362357080655,0.4218289151886019,0.3264649135469916,0.7514609540384025,0.3997282903174251,0.1593827258798343,0.1559719570340047,0.7047541095197375,798.6080586080586,789.3406593406594,804.6520146520147,796.1904761904763,1528.717948717949,1622.197802197802,-0.448364,0.088623,0.797852,12.852631,0.037384,-10.519867,1,1,1,1,1,84.000000
2024-12-18 12:49:47.740,0.3596502349923583,0.7259868585500592,1.114654122551813,1.240807371044758,0.3573625502176253,0.4966052139312851,1.00916766661641,1.392552544218677,0.7636861261419364,0.3796017217570587,0.5468509981369385,0.9833055431894142,0.6444497971717085,0.4295524163211532,0.3948498166772113,0.8206065867280318,0.3903405023145827,0.1709015129674392,0.2599142212152981,0.6484645824059477,813.919413919414,823.992673992674,825.6043956043957,823.992673992674,1274.468864468864,1627.838827838828,-0.341003,-0.065979,0.840027,2.325287,-3.551483,-3.244934,1,1,1,1,1,84.000000
2024-12-18 12:49:48.150,,,,,,,,,,,,,,,,,,,,,,,,,,,,,,,,,,,,,,,/muse/elements/blink
2024-12-18 12:49:48.240,1.09517075472696,1.017901537888117,1.160978106476173,1.009668769868838,0.7831614698677777,0.5988767473378234,1.002881956239365,1.109694177731046,0.5403595897039031,0.5323456507489731,0.5151449109028405,0.8149021466214826,0.6548024550483151,0.4686698697207511,0.4656740034389864,0.8444896388655332,0.5382681527394626,0.1667254926387431,0.238861731868086,0.7646917922803574,811.5018315018315,802.6373626373627,805.8608058608058,810.6959706959707,265.5311355311355,4.432234432234432,-0.696289,-0.059021,1.149536,-4.702911,4.732819,1.353302,1,1,1,1,1,84.000000
2024-12-18 12:49:48.740,1.09517075472696,1.065019640093471,0.9396905953884861,1.009668769868838,0.7831614698677777,0.7601781746447495,0.96985524570952,1.109694177731046,0.5403595897039031,0.5590611961902989,0.8100483548006542,0.8149021466214826,0.6548024550483151,0.4933279540422424,0.4407971344933658,0.8444896388655332,0.5382681527394626,0.2627425741862665,0.185913808566136,0.7646917922803574,788.5347985347986,805.0549450549451,805.0549450549451,807.8754578754579,422.2710622710623,27.3992673992674,-0.592468,-0.085938,1.273376,-1.929016,0.441132,-1.383209,1,1,1,1,1,84.000000
2024-12-18 12:49:49.250,1.112964587858109,0.9984104915087436,0.836864044421744,0.98927618010393,0.7692228705456651,0.8688080417835846,1.181395391439394,1.093041863235544,0.4770953037230364,0.6736810375864156,0.7861759895966739,0.781972311076977,0.6424115547577497,0.5362172215716982,0.3769466426983996,0.8546432723127019,0.5216150740433202,0.2704026878084189,0.1226860719693391,0.7745108778944103,776.4468864468864,789.7435897435897,787.3260073260074,798.6080586080586,124.9084249084249,0,-0.507324,-0.045593,0.912903,-7.955322,-4.964600,2.699127,1,1,1,1,1,84.000000
2024-12-18 12:49:49.739,0.4911682929949754,0.825127999053291,0.8463087607716104,0.9000447694935657,0.5653030322950439,0.9020384470707727,1.205278402157776,1.323240605365759,0.7071892523367244,0.7687482943900306,0.8300496067074923,1.323395400001838,0.6890927095902699,0.5647181343044252,0.494679918411011,1.411276609202583,0.3473445145561217,0.3165363181816475,0.1613476648502584,0.7049260052714277,808.6813186813187,808.2783882783883,799.8168498168499,819.96336996337,179.3040293040293,0.4029304029304029,-0.369446,-0.000305,0.763184,1.428070,6.355286,-2.983246,1,1,1,1,1,84.000000
2024-12-18 12:49:50.242,0.5688734280796306,0.4716767726417975,0.8138327532286322,0.6335868350340992,0.6969573206329424,0.8058846106883143,1.166533239678137,1.25494605160749,0.7905042946702265,0.7761002935587811,0.6726585380745564,1.381561921137084,0.7117925887792573,0.5695127859947654,0.577825827802716,1.264275735083104,0.469530404421182,0.2196565669855445,0.1745602869032001,0.8485358311576615,803.040293040293,798.6080586080586,805.8608058608058,797.8021978021978,166.4102564102564,0,-0.412170,-0.028381,0.743835,1.794434,-0.149536,3.910370,1,1,1,1,1,84.000000
2024-12-18 12:49:50.739,0.6806499277769013,0.5349222230013284,0.832937474963702,0.6827155234227901,0.7544266089495647,0.6888486273802378,1.059932985956233,1.168943622884769,0.9289914570614897,0.5990490094905501,0.6914467824190385,1.381561921137084,0.6981346799475926,0.5219915521024791,0.5896820065489586,1.135337759876168,0.5183968808625241,0.2191641684834955,0.2171830184745632,0.8022601043621411,799.4139194139194,801.4285714285714,805.0549450549451,803.4432234432235,658.7912087912088,671.2820512820513,-0.406738,-0.038025,0.793640,-3.476715,-2.160797,-5.951538,1,1,1,1,1,84.000000
2024-12-18 12:49:51.239,0.6179413464223419,0.348440547894853,0.7397726732000105,0.5714159387071822,0.7475799906605217,0.562874867388901,0.8345888173737114,1.016718101536787,0.8036148766876872,0.5603615247394165,0.7114804958315702,1.372225898715853,0.6609938271202614,0.4110861139531734,0.4934594361270478,0.8709628256830112,0.50751906489087,0.2846072070080537,0.1901073808612188,0.7313351166697362,805.0549450549451,809.8901098901099,782.4908424908425,801.025641025641,876.7765567765568,716.007326007326,-0.395691,-0.025085,0.786682,2.355194,-8.306732,11.604004,1,1,1,1,1,84.000000
2024-12-18 12:49:51.739,0.507776606112378,0.2341549694760108,0.8783189467840481,0.769395539478036,0.6195647194712381,0.4514303633143222,0.8226113418588852,0.864156914983907,0.7558223382320556,0.2871061853751395,0.6269276314086715,1.106746488761322,0.6119894298496731,0.3186960524391556,0.3736221326951508,0.7023344156335403,0.4511462960690599,0.3417671611038036,0.2257266814476111,0.599114959912193,804.6520146520147,800.2197802197802,788.1318681318681,796.996336996337,1518.644688644689,1622.197802197802,-0.478821,0.025269,0.854065,10.856323,-2.594452,-6.362762,1,1,1,1,1,84.000000
2024-12-18 12:49:51.981,,,,,,,,,,,,,,,,,,,,,,,,,,,,,,,,,,,,,,,/muse/elements/blink
2024-12-18 12:49:52.239,0.1286066740277635,0.07218998230484316,0.8589136043469062,1.040553943655414,0.4317050630522818,0.2809241523560633,0.7919740167066158,0.9023618747990562,0.4839059016072526,0.223508358349554,0.5161928787611606,1.155274679355575,0.5801261605006404,0.3250220982157911,0.3542048953649453,0.7214558081007624,0.3498797733387061,0.3181787901056282,0.2308516485645616,0.5463489378723423,812.3076923076924,807.0695970695971,824.7985347985348,824.3956043956044,1622.197802197802,1622.197802197802,-0.419983,-0.102722,0.819702,-7.230072,8.650665,4.329071,1,1,1,1,1,84.000000
2024-12-18 12:49:52.738,0.1830223565251896,0.2382518370719401,1.163315080960303,1.171052298002546,0.3000375001610873,0.2855641721073894,1.126192819049756,0.9395187193955162,0.4070978602955974,0.2439287515721145,0.6550977048808301,1.072866550545975,0.5961070748342364,0.3156355219690204,0.3443917169000589,0.7477413358358822,0.3972357548724437,0.1629955092262347,0.172577036143401,0.6136536885657525,805.4578754578755,811.9047619047619,824.7985347985348,843.3333333333334,1152.783882783883,1580.695970695971,-0.390076,0.010559,0.766418,5.099182,6.616974,-7.962799,1,1,1,1,1,84.000000
2024-12-18 12:49:53.244,0.1714673927006593,0.270581955296272,1.141541766455734,1.314324626469187,0.2768514639172829,0.3405608051289239,1.230224403083218,1.16866694023465,0.3327196339832577,0.6052450580320116,0.9353672243953588,1.261038859758884,0.6031395137462635,0.3732705169507848,0.3834485213992405,0.7722073764818691,0.3874068205207785,0.1568025143689211,0.04533578308058259,0.6476995254205055,795.3846153846154,782.893772893773,770.8058608058608,776.8498168498169,293.3333333333333,26.996336996337,-0.478638,-0.037964,0.945801,1.218719,5.375824,-4.246826,1,1,1,1,1,84.000000
2024-12-18 12:49:53.738,0.5987852104586356,0.2316998074129994,1.044659111883257,0.9544092338023793,0.5496319863699517,0.4108030268913088,1.185673502664125,1.19642399041334,0.8620177217391697,0.7165273233432338,1.070654671983233,1.250387794717915,0.6284153457433655,0.3971820512200162,0.5060424052303261,0.9151151236764868,0.6143865126030575,0.339929316062926,0.04050546966412636,0.7914662900959977,815.934065934066,805.0549450549451,812.7106227106227,796.1904761904763,811.9047619047619,932.7838827838829,-0.595276,0.032410,1.265686,-0.605621,-16.381683,-8.366547,1,1,1,1,1,84.000000
2024-12-18 12:49:54.238,0.7054600696845772,0.381975735361708,0.9213450515239826,1.045889432779146,0.5886710261997437,0.4573494925964569,1.108523838164834,1.228493887708223,1.010386129958342,0.7293446186029084,1.077254027508554,1.250387794717915,0.6618058534581863,0.4583383374262578,0.5483003852431502,0.9682311779457471,0.5285703340308532,0.372301337624226,0.15951402833488,0.7722130445774292,809.0842490842491,811.0989010989011,799.8168498168499,803.040293040293,244.5787545787546,0,-0.430237,0.000488,0.941101,-1.906586,2.751465,-0.149536,1,1,1,1,1,84.000000
2024-12-18 12:49:54.754,0.8463548000504808,0.6306213613880985,0.9202648180635127,1.259120283736917,0.614174945489192,0.5631431240992441,1.006904462499713,1.229923852241755,1.030978863288623,0.7573754132995139,1.062694195406128,1.24468684262881,0.7370124045715336,0.4348381810729333,0.606769841530144,1.111076483272216,0.52039771539786,0.3699927287053715,0.2843542287249228,0.7326155605112608,803.8461538461539,807.4725274725275,784.1025641025641,797.3992673992674,157.5457875457876,20.14652014652015,-0.400269,-0.112549,0.850525,-1.136475,-5.338440,10.146027,1,1,1,1,1,84.000000
2024-12-18 12:49:55.239,0.9216658002773425,0.7529909765958596,0.9781065331061115,1.376007800738663,0.6360183381523083,0.562970405973094,0.8960037331961495,1.233522271663906,0.9892706060054595,0.6235738991577624,0.9248095769536323,1.067402839357827,0.7599299306275595,0.4571394832087413,0.5910740861140904,1.165893891864181,0.4785056932578238,0.2764593251210573,0.3385499466654906,0.7059904448012037,825.6043956043957,807.8754578754579,787.7289377289378,823.5897435897436,834.0659340659341,848.1684981684982,-0.386414,-0.047913,0.786621,-0.650482,0.366364,2.220612,1,1,1,1,1,84.000000
2024-12-18 12:49:55.738,1.029552869110126,0.7188445772024334,1.064691507269768,1.419496116236366,0.7105655393985234,0.5949918736879278,0.9969233232396115,1.269025134543399,0.9334101621520023,0.4608796690279485,0.6361618522710791,0.9677308793057292,0.8247043944768188,0.557405422380058,0.5995172038690013,1.196962083143293,0.5509099200634899,0.4002017943245098,0.3682677056618485,0.6874741153526523,808.6813186813187,809.0842490842491,783.2967032967033,794.5787545787546,1504.139194139194,1622.197802197802,-0.432678,-0.107605,0.791992,-3.775787,-8.934784,9.861908,1,1,1,1,1,84.000000
2024-12-18 12:49:56.242,1.045282016371642,0.663940114004181,1.050533952126618,1.398501430197689,0.5745123624771035,0.4905360009532305,1.033766856911058,1.108050718384516,0.8808596959091902,0.4225569826705847,0.5455585870419465,1.214723876721787,0.8405752244069937,0.594161572371685,0.554902025145213,1.150889900768716,0.6136448051028013,0.4245968079914684,0.2270197000761923,0.7398422717984841,827.2161172161173,789.7435897435897,790.1465201465202,838.0952380952381,1622.600732600733,1622.197802197802,-0.523743,0.105713,0.808594,0.097198,7.379608,-2.721558,1,1,1,1,1,84.000000
2024-12-18 12:49:56.380,,,,,,,,,,,,,,,,,,,,,,,,,,,,,,,,,,,,,,,/muse/elements/blink
2024-12-18 12:49:56.749,1.045282016371642,0.5163896911673433,1.10558453051775,1.398501430197689,0.5745123624771035,0.4569732556859344,1.093382720118014,1.108050718384516,0.8808596959091902,0.3161213944582437,0.6202863048045146,1.214723876721787,0.8405752244069937,0.5021374531606358,0.4462845174930561,1.150889900768716,0.6136448051028013,0.3567738571505676,0.1305273457925741,0.7398422717984841,795.3846153846154,803.040293040293,804.6520146520147,816.3369963369963,1622.197802197802,1622.197802197802,-0.353394,-0.147095,1.026184,-6.901093,-14.303131,1.779480,1,1,1,1,1,84.000000
2024-12-18 12:49:57.238,1.045282016371642,0.5561977911826038,1.114628524491893,1.398501430197689,0.5745123624771035,0.5211705266295599,1.024523760612656,1.108050718384516,0.8808596959091902,0.4330847691403675,0.6077197608195143,1.214723876721787,0.8405752244069937,0.4587699881424762,0.3192926555337199,1.150889900768716,0.6136448051028013,0.2571053905950576,0.01685978173159658,0.7398422717984841,805.0549450549451,799.4139194139194,793.7728937728938,797.8021978021978,543.956043956044,206.7032967032967,-0.441345,0.004456,1.013245,-2.130890,-3.125305,-4.658051,1,1,1,1,1,84.000000
2024-12-18 12:49:57.738,1.045282016371642,0.5413438636569187,1.149990253719001,1.398501430197689,0.5745123624771035,0.5670811655437632,0.9945047396810517,1.108050718384516,0.8808596959091902,0.4703638552234855,0.7488348686448913,1.214723876721787,0.8405752244069937,0.5169962784440278,0.2677544626044873,1.150889900768716,0.6136448051028013,0.2449410953048199,0.1782481960467119,0.7398422717984841,799.8168498168499,801.025641025641,805.8608058608058,817.1428571428571,207.5091575091575,141.025641025641,-0.552490,-0.009521,1.082703,-2.407532,-3.364563,7.043152,1,2,1,1,2,84.000000
2024-12-18 12:49:58.238,1.045282016371642,0.5606795298879907,1.125449694835817,1.398501430197689,0.5745123624771035,0.5226932756661519,0.9810715150746389,1.108050718384516,0.8808596959091902,0.4778640486891958,0.7288706835334506,1.214723876721787,0.8405752244069937,0.5257638473403839,0.3129332981551238,1.150889900768716,0.6136448051028013,0.2413770264218905,0.2096489900014365,0.7398422717984841,809.0842490842491,803.8461538461539,813.919413919414,830.8424908424909,516.1538461538462,256.2637362637363,-0.437805,-0.007080,0.883362,0.321503,1.667328,0.157013,1,2,1,1,2,84.000000
2024-12-18 12:49:58.738,1.016405056405917,0.603297590271651,1.104281016183464,1.152388928054154,0.9489976905269121,0.4432580152751932,0.8941713772421235,1.044316848120225,1.039827645816246,0.5672815599284294,0.6536318968825241,0.9259774552139536,0.9908399447807829,0.5422955705144885,0.3988885548905401,0.9334867909484916,0.7899518710687889,0.2882743817342535,0.2698787516136899,0.6100082656504044,797.8021978021978,796.5934065934066,807.4725274725275,787.7289377289378,0,0,-0.408203,0.030884,0.895325,-2.429962,2.213135,-2.549591,1,1,1,1,1,84.000000
2024-12-18 12:49:59.238,0.9603168939081175,0.6817050771348867,1.075562699831645,1.049173208010035,0.8581636181538361,0.3850628809934501,1.018389484372862,1.225880700421809,1.123450869123063,0.5874938428300683,0.6057278262857549,1.030046830152275,0.9477701117947053,0.4867990333172962,0.4596797956256237,0.9860322108665768,0.88510327771453,0.3114336005690654,0.2000358449282832,0.8683162521690431,796.5934065934066,793.3699633699634,797.8021978021978,782.0879120879121,127.7289377289377,8.058608058608058,-0.333435,-0.048096,0.818176,3.633728,6.803894,1.457977,1,1,1,1,1,84.000000
2024-12-18 12:49:59.737,0.8065903336250999,0.60850210692641,1.055783149171513,0.9550382954604205,0.7518012763686601,0.4889764362013991,1.028646009814623,1.214509306651026,1.127096407959775,0.5414833570617196,0.6023476333681511,1.090663652263812,0.96837098203401,0.6896178374894262,0.5883379304038878,1.05917725460109,0.9703291234445491,0.4379261673075731,0.4771307560428301,1.048943459304437,786.9230769230769,788.9377289377289,798.2051282051282,773.6263736263736,584.6520146520147,370.6959706959707,-0.393494,0.031860,0.771790,-5.734711,0.127106,-18.273315,1,1,1,1,1,84.000000
2024-12-18 12:50:00.237,0.5896205130492554,0.6024317773371353,0.9501030484345725,0.9548194255747648,0.608281927179102,0.6357489823055733,1.031830341116766,1.201676554033773,1.126084797966233,0.6836774276602982,0.5791928022250852,1.080452415544965,0.981056490949749,0.7401657128016426,0.6281278029839544,1.081626350254025,1.014097802949362,0.5401752799926476,0.6039315280267107,1.159248938442514,780.0732600732601,793.7728937728938,792.967032967033,773.6263736263736,1214.432234432235,1434.432234432235,-0.369263,-0.108032,0.881104,3.222504,-15.589142,16.486359,1,1,1,1,1,84.000000
2024-12-18 12:50:00.733,,,,,,,,,,,,,,,,,,,,,,,,,,,,,,,,,,,,,,,/muse/elements/blink
2024-12-18 12:50:00.743,0.5243104568061997,0.44456705706303,0.9074478157735951,0.988821552489958,0.6192174963898152,0.6740234410509689,0.9012597496352489,1.055119184944982,0.9980336565940604,0.8747693782850513,0.4504439499356032,1.032140178888827,1.089355774228662,0.8404660943795249,0.6715892854329519,1.189561698835532,1.012094410462568,0.667693139408762,0.7068560823167094,1.213078248657552,815.934065934066,788.5347985347986,795.3846153846154,809.4871794871796,1618.974358974359,1622.197802197802,-0.464844,-0.026794,0.823547,0.785065,10.519867,12.643280,1,1,1,1,1,84.000000
2024-12-18 12:50:01.237,0.5817229148144065,0.5409201350043359,1.047275014484871,1.037650264113441,0.6852589975776794,0.7112590333447336,0.9308322650010353,1.101429563159566,0.9912289209669959,0.9230340750799449,0.6010632276776549,0.9847458801308107,1.121075228858251,0.8240292230170516,0.6441163980195302,1.204025617103327,0.9875882501945062,0.6814131354833968,0.6548740776986061,1.201545597681186,796.1904761904763,804.2490842490843,803.8461538461539,824.7985347985348,573.7728937728938,708.7545787545788,-0.545959,-0.011353,1.096436,7.970276,3.544006,5.330963,1,1,1,1,1,84.000000
2024-12-18 12:50:01.737,0.811969121002474,0.4239320880430075,1.121864952291059,1.060085297178787,0.8534654514661325,0.5705656901389886,1.008398275519487,0.9656002808352037,1.094995681172993,0.9391866486880943,0.6208176534664608,0.9847458801308107,1.252173779219149,0.9596805486742328,0.6933904561298848,1.274896831404162,0.968041035831439,0.7204662701254098,0.5186082703323782,1.136321464456792,796.996336996337,806.2637362637363,788.9377289377289,798.2051282051282,811.5018315018315,700.6959706959707,-0.613892,-0.005066,1.087341,-1.031799,0.882263,-0.224304,1,1,1,1,1,84.000000
2024-12-18 12:50:02.241,0.6597218982955354,0.3149012580076327,1.121864952291059,1.060085297178787,0.9195604644826254,0.4571654448363969,1.008398275519487,0.9656002808352037,1.032546244636147,0.7426550998727639,0.6208176534664608,0.9847458801308107,1.04763679798895,0.9205130850975688,0.6933904561298848,1.274896831404162,0.9740845165134611,0.6302320650001079,0.5186082703323782,1.136321464456792,814.7252747252747,796.5934065934066,808.6813186813187,812.7106227106227,328.7912087912088,99.92673992673993,-0.526245,0.041565,0.903809,-10.467529,-2.654266,-2.953339,1,1,1,1,1,84.000000
2024-12-18 12:50:02.737,0.6644328855262146,0.226310518753351,0.8295246569945756,1.060085297178787,0.7480345583555368,0.3718868101201002,0.9099622561345508,0.9656002808352037,1.040724872869335,0.7241530876408896,0.6716543060927441,0.9847458801308107,0.9675170531689632,0.8926271153862343,0.675370227142681,1.274896831404162,0.8795993362288528,0.5881275657673264,0.4568189363234595,1.136321464456792,824.7985347985348,813.919413919414,815.5311355311355,828.4249084249085,0.4029304029304029,15.71428571428572,-0.420044,-0.022705,0.781250,0.396271,2.669220,1.547699,1,1,1,1,1,84.000000
2024-12-18 12:50:03.173,,,,,,,,,,,,,,,,,,,,,,,,,,,,,,,,,,,,,,,/muse/elements/blink
2024-12-18 12:50:03.237,0.7648966973736242,0.423484274249895,0.6964397744692018,1.060085297178787,0.8274714452059941,0.5687286257391607,0.9147786741100087,0.9656002808352037,1.073243408775948,0.6320655400416871,0.8208008342855452,0.9847458801308107,0.9611317528490856,0.7432487050558144,0.7702126781657012,1.274896831404162,0.8220770333052855,0.4905441372109666,0.7283094720542941,1.136321464456792,788.1318681318681,788.5347985347986,790.1465201465202,795.7875457875458,5.238095238095238,0,-0.398071,-0.022644,0.782837,-5.271149,-1.413116,-1.465454,1,1,1,1,1,84.000000
2024-12-18 12:50:03.738,0.9243867596530801,0.4279717712335914,0.7623863725071124,1.060085297178787,0.8275278691047926,0.5642135310290536,0.7943244124591314,0.9656002808352037,0.8651435546935493,0.7084411698260681,0.8552254263709945,0.9847458801308107,0.8910733722965669,0.6589697488676237,0.673392757315739,1.274896831404162,0.6800827634629916,0.3741645710857524,0.6174636474990746,1.136321464456792,815.934065934066,803.4432234432235,802.2344322344322,807.4725274725275,232.4908424908425,20.54945054945055,-0.451172,-0.033203,0.787048,5.973969,1.562653,-0.702820,1,1,1,1,1,84.000000
2024-12-18 12:50:04.237,0.9337217636077844,0.4248846132982204,0.8670211137238863,1.060085297178787,0.9359556798894351,0.6056515760974974,0.8064129602342037,0.9656002808352037,1.175218824504991,0.8514257832129948,0.8926810191218251,0.9847458801308107,0.8792477810732403,0.5962634475841248,0.5760721683285648,1.274896831404162,0.8050963305310805,0.2495591785744999,0.5062300564623865,1.136321464456792,801.8315018315019,809.0842490842491,809.8901098901099,827.6190476190476,821.5750915750916,1087.912087912088,-0.382507,0.019897,0.801392,4.022522,-2.930908,-10.759125,1,1,1,1,1,84.000000
2024-12-18 12:50:04.738,0.9357701220336579,0.3219546302318716,0.8419705675396304,0.7699810965256725,0.8289255736460741,0.3390196746129112,0.6368928153680915,0.3316609660648244,1.169247181295308,0.7929772641478035,0.7692737982774365,0.5950943734924985,0.7702314138996653,0.483045226468415,0.3946390393943316,0.9003026805377644,0.8948852361230796,0.1134071446004836,0.105936811184597,0.7758760849132904,789.7435897435897,792.967032967033,790.5494505494506,804.6520146520147,1618.974358974359,1622.197802197802,-0.387085,-0.081604,0.782654,-4.538422,-10.557251,5.069275,1,1,1,1,1,84.000000
2024-12-18 12:50:05.237,0.5662898266684069,0.3813817115472533,0.8006824682242107,0.8190122433950264,0.4803443613669859,0.3982838754278277,0.719187223606143,0.5828883266763553,1.169247181295308,0.8027154465309679,0.7491127319284995,0.6897244625743223,0.6905711029698788,0.5236151094086888,0.4066271814061257,0.8675257822768868,0.7869477022644291,0.1259938203990448,0.1026719437331282,0.8286147972286186,815.5311355311355,796.5934065934066,802.2344322344322,807.4725274725275,1234.175824175824,1591.978021978022,-0.551697,-0.121704,0.832520,3.872986,13.099365,-10.407715,1,1,1,1,1,84.000000
2024-12-18 12:50:05.737,0.6615603679005668,0.4817678559395094,0.8112109804044707,0.9562264274525242,0.5648914492580825,0.2858507196470281,0.5696268596674874,0.7773378744364811,0.778324543895342,0.4088642779900672,0.6882788210341062,0.6816055872873354,0.8467266632908836,0.5879285094471133,0.4266149616435568,0.8606558299435769,0.4734545013384699,0.2208462233080218,0.2223651207617313,0.7967222270074905,828.021978021978,801.025641025641,796.1904761904763,828.021978021978,825.6043956043957,1004.505494505495,-0.491516,-0.119202,0.977539,1.876678,-1.943970,7.028198,1,1,1,1,1,84.000000
2024-12-18 12:50:06.255,0.6927499966964035,0.4646743810124311,0.844789005492127,1.011195066456608,0.5306552090639762,0.2615956060513223,0.6511276429753998,0.9389566186194456,0.8087888702831535,0.4300598992610169,0.6440672947285735,0.7054587139422167,0.8269157672938325,0.6069257494462582,0.4059922645737439,0.8790017586306791,0.4888504226378991,0.1954613159379423,0.2602166517290173,0.781678300135022,798.6080586080586,800.6227106227107,801.8315018315019,789.3406593406594,960.1831501831502,972.2710622710623,-0.507263,0.010437,0.896912,-1.682281,-0.568237,5.547791,1,1,1,1,1,84.000000
2024-12-18 12:50:06.740,0.6287209653810838,0.3680568837511742,0.8532116561499143,1.018144236423118,0.4620873859913247,0.08369726849887164,0.6291381303685818,0.9637804345260494,0.8087888702831535,0.3907890375765982,0.466408303509808,0.8236044940773375,0.8681112205711649,0.5060102628578664,0.4328592810965822,0.9152612129428277,0.4612079957564181,0.1848811202151912,0.2637697638662425,0.7407347687119259,790.1465201465202,813.1135531135532,806.2637362637363,800.2197802197802,317.1062271062271,435.970695970696,-0.545166,-0.051392,1.003540,-5.749664,5.712280,3.229980,1,1,1,1,1,84.000000
2024-12-18 12:50:07.236,0.7249815044839634,0.1351359427699938,0.6713418042976241,0.8455975034064159,0.4583402818813975,0.1217917749649371,0.6513955867799186,0.8525614524051492,0.7759469157649129,0.3956035083328588,0.4173949034941537,0.8358398037242283,0.7526413072669933,0.4534659880235152,0.4757230278587683,0.966495638203908,0.4626128577495627,0.2117887593540778,0.2908534554967994,0.8226024676297885,821.5750915750916,856.2271062271062,791.7582417582418,805.0549450549451,280.0366300366301,37.87545787545788,-0.358093,0.008667,0.863525,9.682465,-7.020721,-10.542297,1,1,1,1,1,84.000000
2024-12-18 12:50:07.737,0.7197186789372585,0.5352259279527214,0.8491551645992657,0.8046391534767948,0.5151698998788672,0.3308148271089455,0.7865493319857646,0.7376901510814157,0.4318949817281637,0.3369300370978055,0.4211878543463358,0.7809028378015627,0.724591437508073,0.4967428270385693,0.4530170037922152,0.9667969948977551,0.4172745958922678,0.263432804325542,0.290655284818412,0.8525166288561508,796.996336996337,794.5787545787546,806.6666666666667,809.0842490842491,629.3772893772893,373.5164835164835,-0.359253,0.072571,0.906128,11.775970,-21.877136,-4.837494,1,1,1,1,1,84.000000
2024-12-18 12:50:08.236,1.018016233928836,0.8609500381474854,0.8857034166626796,0.6466798822580704,0.744635590722366,0.4449683800823302,0.7867894183178531,0.4880834075153927,0.558638089329663,0.3981263079793304,0.4190195522505774,0.7134542517050276,0.6999317576961467,0.5220841102772609,0.4203518439599211,1.001111815319837,0.4414694215084156,0.2667992543059963,0.2929972829277127,0.9285006542984313,796.1904761904763,808.6813186813187,805.4578754578755,800.6227106227107,1545.641025641026,1621.794871794872,-0.436096,-0.033508,0.892822,13.346100,13.989105,-22.086487,1,1,1,1,1,84.000000
