TimeStamp,Delta_TP9,Delta_AF7,Delta_AF8,Delta_TP10,Theta_TP9,Theta_AF7,Theta_AF8,Theta_TP10,Alpha_TP9,Alpha_AF7,Alpha_AF8,Alpha_TP10,Beta_TP9,Beta_AF7,Beta_AF8,Beta_TP10,Gamma_TP9,Gamma_AF7,Gamma_AF8,Gamma_TP10,RAW_TP9,RAW_AF7,RAW_AF8,RAW_TP10,AUX_RIGHT,Accelerometer_X,Accelerometer_Y,Accelerometer_Z,Gyro_X,Gyro_Y,Gyro_Z,HeadBandOn,HSI_TP9,HSI_AF7,HSI_AF8,HSI_TP10,Battery,Elements
2024-12-17 13:51:33.939,,,,,,,,,,,,,,,,,,,,,,,,,,,,,,,,,,,,,,/muse/event/connected Muse-D2D3
2024-12-17 13:51:34.350,,,,,,,,,,,,,,,,,,,,,,,,,,,,,,,,,,,,,,/muse/elements/blink
2024-12-17 13:51:34.440,0.8912258310112484,0.04116915023965662,0.05008613104564476,0.7476977227459543,0.7776127288788186,-0.02404467151776427,-0.2409073109855244,0.6074936419608117,0.8529649242604861,0.2418587889228753,0.1167096540838876,0.7039376848823785,0.9566024894447647,0.5488986144841498,0.03007755790558078,0.7380860364322058,0.8163271304910367,0.4565037513440944,-0.3966048277573634,0.4781333985430326,841.7216117216118,803.040293040293,798.6080586080586,834.4688644688645,700.2930402930403,-0.304932,0.074402,0.969543,0.949554,1.555176,4.613190,1,1,1,1,1,55.000000
2024-12-17 13:51:34.940,1.017839576952192,0.2714917970151376,0.7175684488130037,0.8792693498612736,0.9307126398390547,-0.01942553297016084,0.4014967657692434,0.6951390330060383,0.7314632203144944,0.103255392972139,0.1982099328631509,0.7018768879048481,1.006003739415346,0.5399157349240902,0.04695981017118593,0.5849057856086251,0.8092410474673535,0.6443392354484984,-0.1676433328742907,0.4129795113248385,788.9377289377289,797.8021978021978,801.025641025641,794.981684981685,698.2783882783883,-0.275513,0.070557,0.979858,2.542114,-4.194489,-2.160797,1,1,1,1,1,55.000000
2024-12-17 13:51:35.439,1.089036478443886,0.2602605362423652,0.7688194119561247,1.005247352423499,0.9205768693968465,-0.1716687699639372,0.4387256815792105,0.7006602228029717,0.6937161060354166,-0.00988884700810564,0.2426150251886205,0.5911259002659922,1.053098713788791,0.4859908496246418,-0.04766712168402357,0.4559181276004988,0.9136954809123247,0.5993644425170891,-0.1281549509617062,0.48249311694501,851.3919413919414,788.1318681318681,800.6227106227107,843.3333333333334,754.6886446886447,-0.271667,0.070435,0.959167,2.235565,-5.839386,0.934601,1,1,1,1,1,55.000000
2024-12-17 13:51:35.544,,,,,,,,,,,,,,,,,,,,,,,,,,,,,,,,,,,,,,/muse/elements/blink
2024-12-17 13:51:35.954,1.089036478443886,0.2845232750106479,0.8719515547475678,1.005247352423499,0.9205768693968465,-0.1216177984343334,0.5674247366987656,0.7006602228029717,0.6937161060354166,0.1879019126817403,0.3011932705379216,0.5911259002659922,1.053098713788791,0.4140207476392944,-0.03328810543987581,0.4559181276004988,0.9136954809123247,0.5096959351582347,-0.1272768447445659,0.48249311694501,794.5787545787546,807.0695970695971,805.4578754578755,773.2234432234433,828.8278388278388,-0.325745,0.097229,0.977661,4.949646,-5.413208,-1.173859,1,1,1,1,1,55.000000
2024-12-17 13:51:36.062,,,,,,,,,,,,,,,,,,,,,,,,,,,,,,,,,,,,,,/muse/elements/blink
2024-12-17 13:51:36.440,1.089036478443886,0.286275518277221,0.8221511863875941,1.005247352423499,0.9205768693968465,0.1306342546107938,0.5752391683831383,0.7006602228029717,0.6937161060354166,0.3568499966225921,0.3317273533916711,0.5911259002659922,1.053098713788791,0.3896831542820799,-0.05778466035590311,0.4559181276004988,0.9136954809123247,0.2552539077708583,-0.1724906117875193,0.48249311694501,803.8461538461539,794.1758241758242,805.0549450549451,806.2637362637363,886.0439560439561,-0.291870,0.079102,0.970093,2.721558,-2.213135,-1.405640,1,1,1,1,1,55.000000
2024-12-17 13:51:36.948,1.089036478443886,0.3836670508607659,0.906552900530428,1.005247352423499,0.9205768693968465,0.3976619430141459,0.6634037431854677,0.7006602228029717,0.6937161060354166,0.3923412620853591,0.333204191016561,0.5911259002659922,1.053098713788791,0.4449778008796858,0.01420740605387658,0.4559181276004988,0.9136954809123247,0.2498932907953683,-0.1369155676388572,0.48249311694501,792.5641025641025,803.4432234432235,803.8461538461539,811.0989010989011,826.007326007326,-0.293884,0.087402,0.968079,1.869202,-2.400055,-0.485992,1,2,1,1,2,55.000000
2024-12-17 13:51:37.440,1.089036478443886,0.3557351154915674,0.8158643561158344,1.005247352423499,0.9205768693968465,0.3868720539524948,0.564263011578986,0.7006602228029717,0.6937161060354166,0.2766099814553614,0.3099124768067225,0.5911259002659922,1.053098713788791,0.4458132509580215,-0.00016761808698842,0.4559181276004988,0.9136954809123247,0.2330222631678295,-0.09645039982325421,0.48249311694501,837.6923076923077,811.0989010989011,798.2051282051282,840.9157509157509,864.2857142857143,-0.270508,0.074890,0.979309,2.646790,-4.344025,-1.188812,1,2,1,1,2,55.000000
2024-12-17 13:51:37.604,,,,,,,,,,,,,,,,,,,,,,,,,,,,,,,,,,,,,,/muse/elements/blink
2024-12-17 13:51:37.952,1.089036478443886,0.1611137929369129,0.7723242290112029,1.005247352423499,0.9205768693968465,0.1674930610166228,0.3911670777026032,0.7006602228029717,0.6937161060354166,0.2174707513761263,0.3900071593438885,0.5911259002659922,1.053098713788791,0.4907716039125245,-0.05467591016814097,0.4559181276004988,0.9136954809123247,0.2314536590420581,-0.1202061167268425,0.48249311694501,805.0549450549451,789.7435897435897,800.2197802197802,791.3553113553114,708.7545787545788,-0.281982,0.087036,0.974060,3.080444,-0.119629,1.652374,1,2,1,1,2,55.000000
2024-12-17 13:51:38.440,1.089036478443886,-0.08525289164750835,0.6735215765856157,1.005247352423499,0.9205768693968465,-0.07759160806558113,0.3027619023354166,0.7006602228029717,0.6937161060354166,0.1305544050471152,0.1170052518888094,0.5911259002659922,1.053098713788791,0.4698326363772489,-0.05068368330009861,0.4559181276004988,0.9136954809123247,0.2295040153786087,-0.1551154239584172,0.48249311694501,817.5457875457876,785.7142857142858,811.9047619047619,827.2161172161173,713.1868131868132,-0.290771,0.112549,0.939758,2.392578,-2.086029,0.568237,1,2,1,1,2,55.000000
2024-12-17 13:51:38.940,1.089036478443886,-0.09200338649253849,0.6638391581406845,1.005247352423499,0.9205768693968465,0.1026221270289448,0.2941185032516856,0.7006602228029717,0.6937161060354166,0.4525582652378992,0.1170052518888094,0.5911259002659922,1.053098713788791,0.5700115547797794,-0.0190440705271185,0.4559181276004988,0.9136954809123247,0.4605202626604177,-0.1860361658364477,0.48249311694501,749.4505494505495,801.8315018315019,803.4432234432235,834.0659340659341,716.8131868131868,-0.430298,0.019470,0.847900,0.284119,-7.992706,-1.510315,1,2,1,1,2,55.000000
2024-12-17 13:51:39.440,1.089036478443886,0.06370325753607579,0.329355730727935,1.005247352423499,0.9205768693968465,0.1554494390673309,-0.01559442152809579,0.7006602228029717,0.6937161060354166,0.5226658471192295,0.09432576640940499,0.5911259002659922,1.053098713788791,0.6091687449884928,0.04377907020718045,0.4559181276004988,0.9136954809123247,0.6214633464835584,-0.1987201151359143,0.48249311694501,887.2527472527473,796.5934065934066,808.2783882783883,804.6520146520147,790.1465201465202,-0.307373,0.115784,0.960205,-1.375732,9.749756,-2.990723,1,2,1,1,2,55.000000
2024-12-17 13:51:39.806,,,,,,,,,,,,,,,,,,,,,,,,,,,,,,,,,,,,,,/muse/elements/blink
2024-12-17 13:51:39.940,1.089036478443886,0.2255427923553695,0.1084629421379839,1.005247352423499,0.9205768693968465,0.2977848638824424,-0.007392823896377395,0.7006602228029717,0.6937161060354166,0.6277113325690219,0.03944152781748005,0.5911259002659922,1.053098713788791,0.8071395529233659,0.1734470375063631,0.4559181276004988,0.9136954809123247,0.7813903822864725,-0.1705921598380866,0.48249311694501,820.7692307692308,777.2527472527473,809.0842490842491,834.8717948717949,866.7032967032967,-0.398804,0.167908,1.387085,2.183228,-7.790833,4.979553,1,2,1,1,2,55.000000
2024-12-17 13:51:40.446,1.089036478443886,0.3388237464969124,0.4005389245483431,1.005247352423499,0.9205768693968465,0.4629486125952893,0.3209756492684058,0.7006602228029717,0.6937161060354166,0.7574160973396458,0.141028988433934,0.5911259002659922,1.053098713788791,0.9802758764059453,0.2702374044542629,0.4559181276004988,0.9136954809123247,0.8500418663943691,0.02413736781772237,0.48249311694501,660,796.5934065934066,827.6190476190476,681.3553113553114,747.8388278388279,-0.302795,0.059448,0.998108,3.790741,3.760834,-4.523468,1,2,1,1,2,55.000000
2024-12-17 13:51:40.641,,,,,,,,,,,,,,,,,,,,,,,,,,,,,,,,,,,,,,/muse/elements/blink
2024-12-17 13:51:40.946,1.089036478443886,0.268606589277865,0.5464673544164158,1.005247352423499,0.9205768693968465,0.469674874254098,0.5872056851610108,0.7006602228029717,0.6937161060354166,0.7543517471706279,0.6160430690257017,0.5911259002659922,1.053098713788791,1.011178457197329,0.3182690640913179,0.4559181276004988,0.9136954809123247,0.8986657200823698,0.08864456676672575,0.48249311694501,779.2673992673992,800.2197802197802,799.4139194139194,790.5494505494506,602.7838827838827,-0.225220,0.109985,0.960938,2.287903,4.942169,0.979462,1,2,1,1,2,55.000000
2024-12-17 13:51:41.449,1.089036478443886,0.2344567113378141,0.63630636942938,1.005247352423499,0.9205768693968465,0.3540402961237556,0.6770827922716783,0.7006602228029717,0.6937161060354166,0.7580517246760472,0.6564761993951505,0.5911259002659922,1.053098713788791,0.9650986105796809,0.3305201250484811,0.4559181276004988,0.9136954809123247,0.8844953992093504,0.08203697482970927,0.48249311694501,780.0732600732601,807.0695970695971,797.8021978021978,800.6227106227107,568.1318681318681,-0.264771,-0.009705,0.767822,8.994598,-1.375732,7.402039,1,2,1,1,2,55.000000
2024-12-17 13:51:41.941,1.089036478443886,0.2089178157076439,0.5118102380656745,1.005247352423499,0.9205768693968465,0.07044089613405566,0.5645337735383482,0.7006602228029717,0.6937161060354166,0.7121713745358301,0.6792259338731186,0.5911259002659922,1.053098713788791,0.9219216651543682,0.3421967120016737,0.4559181276004988,0.9136954809123247,0.8670446413593288,-0.0221535712997693,0.48249311694501,785.7142857142858,796.996336996337,807.4725274725275,823.992673992674,704.7252747252747,-0.193298,0.079590,0.750183,-2.609406,-3.237457,-6.168365,1,2,1,1,2,55.000000
2024-12-17 13:51:42.341,,,,,,,,,,,,,,,,,,,,,,,,,,,,,,,,,,,,,,/muse/elements/blink
2024-12-17 13:51:42.440,1.089036478443886,0.5938871746981904,0.5225844879670717,1.005247352423499,0.9205768693968465,0.2367300200948287,0.5777061124139514,0.7006602228029717,0.6937161060354166,0.8373341645443232,0.6767765287409119,0.5911259002659922,1.053098713788791,0.9541549874762619,0.3495721384825771,0.4559181276004988,0.9136954809123247,0.8512171952924761,-0.1652540005199013,0.48249311694501,827.6190476190476,806.2637362637363,803.040293040293,830.8424908424909,720.8424908424909,-0.311646,-0.008118,0.890320,1.779480,-2.646790,1.069183,1,2,1,1,2,55.000000
2024-12-17 13:51:42.761,,,,,,,,,,,,,,,,,,,,,,,,,,,,,,,,,,,,,,/muse/elements/blink
2024-12-17 13:51:42.940,1.089036478443886,0.6452334414352684,0.8366502885659522,1.005247352423499,0.9205768693968465,0.3658799625834156,0.6653007085921878,0.7006602228029717,0.6937161060354166,0.8393473532095698,0.5271563477768961,0.5911259002659922,1.053098713788791,0.9936681962463121,0.3520330350736055,0.4559181276004988,0.9136954809123247,0.8197762843746417,-0.07868275154792022,0.48249311694501,863.0769230769231,806.6666666666667,803.040293040293,843.3333333333334,905.7875457875458,-0.303406,0.154236,1.021301,5.951538,-9.203949,7.529144,1,2,1,1,2,55.000000
2024-12-17 13:51:43.368,,,,,,,,,,,,,,,,,,,,,,,,,,,,,,,,,,,,,,/muse/elements/blink
2024-12-17 13:51:43.446,1.089036478443886,0.669305584315398,1.036934606248972,1.005247352423499,0.9205768693968465,0.4622832322514416,0.7880631978409603,0.7006602228029717,0.6937161060354166,0.8216754362162527,0.5371015654597745,0.5911259002659922,1.053098713788791,0.8783478336115792,0.2760020645844827,0.4559181276004988,0.9136954809123247,0.6793187986312498,-0.1252405871109123,0.48249311694501,859.047619047619,814.3223443223443,803.040293040293,822.7838827838829,968.6446886446887,-0.355469,0.020447,0.904175,1.398163,14.004059,-1.480408,1,2,1,1,2,55.000000
2024-12-17 13:51:43.880,,,,,,,,,,,,,,,,,,,,,,,,,,,,,,,,,,,,,,/muse/elements/blink
2024-12-17 13:51:43.940,1.089036478443886,0.4388350097020682,1.027599405912314,1.005247352423499,0.9205768693968465,0.416758763895829,0.725627327966759,0.7006602228029717,0.6937161060354166,0.6673688761153929,0.476788463814991,0.5911259002659922,1.053098713788791,0.838555760934464,0.2202939150869909,0.4559181276004988,0.9136954809123247,0.5970683270128028,-0.07717861719854431,0.48249311694501,792.5641025641025,798.2051282051282,791.7582417582418,827.6190476190476,732.1245421245421,-0.565491,0.113831,1.482300,-4.426270,5.338440,-8.411407,1,2,1,1,2,55.000000
2024-12-17 13:51:44.440,1.089036478443886,0.3450440023975292,1.038202709824728,1.005247352423499,0.9205768693968465,0.4440234044970826,0.613888782326457,0.7006602228029717,0.6937161060354166,0.482752551806417,0.4484583380170536,0.5911259002659922,1.053098713788791,0.7316467555230494,0.2139001815436913,0.4559181276004988,0.9136954809123247,0.3941733108502647,-0.0674465580639248,0.48249311694501,785.7142857142858,799.0109890109891,805.4578754578755,823.992673992674,802.2344322344322,-0.365723,0.100220,0.859863,4.134674,5.764618,-2.646790,1,2,1,1,2,55.000000
2024-12-17 13:51:44.485,,,,,,,,,,,,,,,,,,,,,,,,,,,,,,,,,,,,,,/muse/elements/blink
2024-12-17 13:51:44.941,1.089036478443886,0.3046555881103371,0.9143207749695165,1.005247352423499,0.9205768693968465,0.4400918767594206,0.4895498005931023,0.7006602228029717,0.6937161060354166,0.2048390172025402,0.4521578507565531,0.5911259002659922,1.053098713788791,0.7871245574227634,0.3709057371173404,0.4559181276004988,0.9136954809123247,0.4596100180711166,0.110493813081418,0.48249311694501,847.7655677655678,814.3223443223443,793.3699633699634,848.5714285714286,881.6117216117217,-0.404419,0.034485,0.800232,6.990814,-3.162689,7.274933,1,2,1,1,2,55.000000
2024-12-17 13:51:45.004,,,,,,,,,,,,,,,,,,,,,,,,,,,,,,,,,,,,,,/muse/elements/blink
2024-12-17 13:51:45.387,,,,,,,,,,,,,,,,,,,,,,,,,,,,,,,,,,,,,,/muse/elements/blink
2024-12-17 13:51:45.441,1.089036478443886,0.3046555881103371,0.9421577253987135,1.005247352423499,0.9205768693968465,0.4400918767594206,0.582375344567536,0.7006602228029717,0.6937161060354166,0.2048390172025402,0.6148530014628434,0.5911259002659922,1.053098713788791,0.7871245574227634,0.4343425328739246,0.4559181276004988,0.9136954809123247,0.4596100180711166,0.07348864375238486,0.48249311694501,863.0769230769231,782.0879120879121,803.8461538461539,865.4945054945056,554.0293040293041,-0.296143,0.114868,0.772034,5.764618,-4.418793,-7.574005,1,2,1,1,2,55.000000
2024-12-17 13:51:45.940,1.089036478443886,1.049370800688015,0.8337281772592462,1.005247352423499,0.9205768693968465,0.6365589739087736,0.4905598906471553,0.7006602228029717,0.6937161060354166,0.7371142422445196,0.5961039240933307,0.5911259002659922,1.053098713788791,0.7744063891906711,0.4035810943637272,0.4559181276004988,0.9136954809123247,0.3369428163784688,0.03075195606067266,0.48249311694501,789.3406593406594,799.8168498168499,813.5164835164835,808.2783882783883,684.1758241758242,-0.248047,0.018921,0.747253,9.226379,-8.807678,0.994415,1,2,1,1,2,55.000000
2024-12-17 13:51:46.440,1.089036478443886,1.046025200413217,0.8320260668709116,1.005247352423499,0.9205768693968465,0.5945832274799632,0.5073574204678556,0.7006602228029717,0.6937161060354166,0.7371142422445196,0.5946227791736786,0.5911259002659922,1.053098713788791,0.7350943701140893,0.2737739570464258,0.4559181276004988,0.9136954809123247,0.4445896847518003,-0.06790678476161559,0.48249311694501,793.7728937728938,808.6813186813187,804.6520146520147,797.8021978021978,765.5677655677656,-0.231201,0.103760,0.761963,1.637421,-14.519958,-6.609497,1,2,1,1,2,55.000000
2024-12-17 13:51:46.954,1.089036478443886,1.108479266287158,1.000090458035471,1.005247352423499,0.9205768693968465,0.3959507581127509,0.5918107181258973,0.7006602228029717,0.6937161060354166,0.606187148975498,0.8523979750587457,0.5911259002659922,1.053098713788791,0.6816169048525019,0.2161521362740043,0.4559181276004988,0.9136954809123247,0.450532945133734,0.02770479460485973,0.48249311694501,831.2454212454213,796.5934065934066,820.7692307692308,839.3040293040293,855.8241758241759,-0.319336,-0.001587,0.913879,-4.246826,-10.587158,2.482300,1,2,1,1,2,55.000000
2024-12-17 13:51:47.440,1.089036478443886,1.12361708176742,0.9622825302567524,1.005247352423499,0.9205768693968465,0.2466694270762366,0.5961651525364527,0.7006602228029717,0.6937161060354166,0.3253890187126524,0.8213097347644875,0.5911259002659922,1.053098713788791,0.5695651042019805,0.1979095548747139,0.4559181276004988,0.9136954809123247,0.5578475293247581,0.06834046775931828,0.48249311694501,838.0952380952381,806.2637362637363,795.3846153846154,840.1098901098901,766.7765567765568,-0.283630,0.113647,0.891479,-8.650665,7.289886,-2.729034,1,2,1,1,2,55.000000
2024-12-17 13:51:47.455,,,,,,,,,,,,,,,,,,,,,,,,,,,,,,,,,,,,,,/muse/elements/blink
2024-12-17 13:51:47.940,1.089036478443886,1.12361708176742,1.116094083731938,1.005247352423499,0.9205768693968465,0.2466694270762366,0.7666857957003407,0.7006602228029717,0.6937161060354166,0.3253890187126524,0.8159420048296478,0.5911259002659922,1.053098713788791,0.5695651042019805,0.2710145183239562,0.4559181276004988,0.9136954809123247,0.5578475293247581,0.1446380931094451,0.48249311694501,752.2710622710623,792.5641025641025,799.8168498168499,819.5604395604396,614.8717948717949,-0.451538,0.133179,1.595825,10.848846,3.229980,9.203949,1,2,1,1,2,55.000000
2024-12-17 13:51:48.440,1.089036478443886,0.7346424466533367,0.3802718236088751,1.005247352423499,0.9205768693968465,0.1821716827297175,0.2745011610852886,0.7006602228029717,0.6937161060354166,0.4988738718031143,0.3380571188321008,0.5911259002659922,1.053098713788791,0.898489853312213,0.1522158827226583,0.4559181276004988,0.9136954809123247,0.6072147641771789,-0.04424580170379751,0.48249311694501,764.3589743589744,814.7252747252747,792.1611721611722,813.919413919414,678.9377289377289,-0.414551,0.133728,1.210999,2.945862,11.768494,-2.422485,1,2,1,1,2,55.000000
2024-12-17 13:51:48.940,1.089036478443886,0.7511688604338242,0.3275072356455317,1.005247352423499,0.9205768693968465,0.1830818261233975,0.2347154653510321,0.7006602228029717,0.6937161060354166,0.5365301942842567,0.342163964562985,0.5911259002659922,1.053098713788791,0.8930245916381998,0.1556934778767629,0.4559181276004988,0.9136954809123247,0.6388134544244167,0.05359826220916215,0.48249311694501,802.2344322344322,798.2051282051282,796.5934065934066,782.893772893773,555.6410256410256,-0.323120,0.112915,0.967224,4.590759,-0.082245,-3.895416,1,2,1,1,2,55.000000
2024-12-17 13:51:49.440,1.089036478443886,0.9223536114332823,0.3097469573967672,1.005247352423499,0.9205768693968465,0.2221578323660858,0.06592054425684316,0.7006602228029717,0.6937161060354166,0.6661965321042851,0.3688394829965853,0.5911259002659922,1.053098713788791,0.8949757236394207,0.1866891116657593,0.4559181276004988,0.9136954809123247,0.6614863266925253,0.05159862989342506,0.48249311694501,818.7545787545788,793.7728937728938,807.0695970695971,859.4505494505495,807.8754578754579,-0.370972,0.043030,0.806396,3.394470,0.314026,-10.288086,1,2,1,1,2,55.000000
2024-12-17 13:51:49.950,1.089036478443886,0.9756726668696809,0.4046443503554073,1.005247352423499,0.9205768693968465,0.5540194773749396,0.3045310845303593,0.7006602228029717,0.6937161060354166,0.6616010809594002,0.4500751377032423,0.5911259002659922,1.053098713788791,0.7345432609263177,0.2575546917628758,0.4559181276004988,0.9136954809123247,0.5541099239659197,0.08038410672609858,0.48249311694501,784.9084249084249,788.9377289377289,805.4578754578755,789.3406593406594,721.2454212454213,-0.270569,0.100586,0.714783,0.134583,-5.360870,-8.650665,1,2,1,1,2,55.000000
2024-12-17 13:51:50.289,,,,,,,,,,,,,,,,,,,,,,,,,,,,,,,,,,,,,,/muse/elements/blink
2024-12-17 13:51:50.448,1.089036478443886,1.009771386750238,0.6623934867197692,1.005247352423499,0.9205768693968465,0.6042316063516587,0.5116504726822421,0.7006602228029717,0.6937161060354166,0.6520908312403081,0.5953200519888644,0.5911259002659922,1.053098713788791,0.6620391180006238,0.2558537252899925,0.4559181276004988,0.9136954809123247,0.4502245878687345,-0.04219386217238971,0.48249311694501,781.2820512820513,788.5347985347986,812.3076923076924,805.8608058608058,705.1282051282052,-0.233704,0.022156,0.734985,7.080536,-11.476898,16.785431,1,2,1,1,2,55.000000
2024-12-17 13:51:50.940,1.089036478443886,0.8848407324648166,1.171075702680161,1.005247352423499,0.9205768693968465,0.6662076174319127,0.6159750530073362,0.7006602228029717,0.6937161060354166,0.1654339939193089,0.6456229276356983,0.5911259002659922,1.053098713788791,0.5396810494007921,0.2499926977383276,0.4559181276004988,0.9136954809123247,0.2919788981789154,-0.08166961387680499,0.48249311694501,802.6373626373627,776.8498168498169,804.6520146520147,801.4285714285714,942.4542124542124,-0.298218,0.094299,0.869019,1.106567,-5.076752,-5.532837,1,2,1,1,2,55.000000
2024-12-17 13:51:51.296,,,,,,,,,,,,,,,,,,,,,,,,,,,,,,,,,,,,,,/muse/elements/blink
2024-12-17 13:51:51.446,1.089036478443886,0.9122430952247649,1.215529647363807,1.005247352423499,0.9205768693968465,0.6363860518018312,0.5240047052828064,0.7006602228029717,0.6937161060354166,-0.1525138320216068,0.5094291909846121,0.5911259002659922,1.053098713788791,0.4894728043978454,0.2072657082666727,0.4559181276004988,0.9136954809123247,0.2411777921189206,-0.1229286895583862,0.48249311694501,837.2893772893773,795.3846153846154,797.3992673992674,823.5897435897436,1093.956043956044,-0.255249,-0.034241,0.942444,-3.372040,-8.000183,-4.104767,1,2,1,1,2,55.000000
2024-12-17 13:51:51.940,1.089036478443886,0.7782614353565921,1.223244339246885,1.005247352423499,0.9205768693968465,0.7748681895456858,0.4694026528550886,0.7006602228029717,0.6937161060354166,0.5548057740690056,0.6559642858738163,0.5911259002659922,1.053098713788791,0.72444955434733,0.2495514311478985,0.4559181276004988,0.9136954809123247,0.6385305571304688,-0.1206146017659583,0.48249311694501,964.2124542124542,808.6813186813187,788.9377289377289,837.2893772893773,786.9230769230769,-0.230652,0.118469,1.125732,1.562653,-5.495453,-3.222504,1,2,1,1,2,55.000000
2024-12-17 13:51:51.998,,,,,,,,,,,,,,,,,,,,,,,,,,,,,,,,,,,,,,/muse/elements/blink
2024-12-17 13:51:52.440,1.089036478443886,0.890110676020766,0.891316961859963,1.005247352423499,0.9205768693968465,0.6537947597371029,0.5768276029287769,0.7006602228029717,0.6937161060354166,0.5741182689131155,0.6188116203525195,0.5911259002659922,1.053098713788791,0.7588943035081489,0.2426678419095796,0.4559181276004988,0.9136954809123247,0.560376216283645,-0.1550526849573973,0.48249311694501,984.7619047619048,823.992673992674,794.1758241758242,814.3223443223443,673.2967032967033,-0.260742,0.036438,1.143433,5.383301,-1.495361,-0.605621,1,2,1,1,2,55.000000
2024-12-17 13:51:52.940,1.089036478443886,0.8423046240291241,0.8632764634922236,1.005247352423499,0.9205768693968465,0.5663678458877183,0.5979497247572612,0.7006602228029717,0.6937161060354166,0.68877880855645,0.6109311528250784,0.5911259002659922,1.053098713788791,0.8634088341371564,0.2466468904503799,0.4559181276004988,0.9136954809123247,0.5359222557401168,-0.06870993690515771,0.48249311694501,814.3223443223443,828.4249084249085,790.5494505494506,782.893772893773,686.1904761904763,-0.274414,0.089844,1.182617,-2.400055,7.745972,5.884247,1,2,1,1,2,55.000000
2024-12-17 13:51:53.440,1.089036478443886,0.9187687982591968,0.7772212875350683,1.005247352423499,0.9205768693968465,0.374737330035543,0.4814132046033593,0.7006602228029717,0.6937161060354166,0.7078624733044314,0.5562414450106072,0.5911259002659922,1.053098713788791,1.01347845997149,0.2478969861259306,0.4559181276004988,0.9136954809123247,0.462652329004701,-0.0280429530890605,0.48249311694501,784.1025641025641,815.5311355311355,803.040293040293,829.2307692307693,652.3443223443223,-0.193481,0.157532,1.002441,10.407715,5.674896,3.491669,1,2,1,1,2,55.000000
2024-12-17 13:51:53.817,,,,,,,,,,,,,,,,,,,,,,,,,,,,,,,,,,,,,,/muse/elements/blink
2024-12-17 13:51:53.940,1.089036478443886,0.8967477317923345,0.6860801364757292,1.005247352423499,0.9205768693968465,0.2634330353774979,0.2440908494195835,0.7006602228029717,0.6937161060354166,0.6708273377493845,0.534969555555226,0.5911259002659922,1.053098713788791,1.105792836357106,0.2274678811519573,0.4559181276004988,0.9136954809123247,0.4563927574957087,-0.05055209395377218,0.48249311694501,831.6483516483516,792.5641025641025,797.8021978021978,813.919413919414,736.5567765567765,-0.185669,0.124146,1.015320,1.338348,-0.934601,-12.134857,1,2,1,1,2,55.000000
2024-12-17 13:51:54.444,1.089036478443886,1.007736088292305,0.6747854361804012,1.005247352423499,0.9205768693968465,0.3999846982566128,0.3545837629605627,0.7006602228029717,0.6937161060354166,0.5797774792656828,0.5740315784774188,0.5911259002659922,1.053098713788791,1.080071109082132,0.3330049180858399,0.4559181276004988,0.9136954809123247,0.4473041889002609,-0.1020123921796745,0.48249311694501,840.5128205128206,805.4578754578755,806.2637362637363,796.996336996337,678.9377289377289,-0.136475,0.016052,0.896912,5.046844,4.575806,4.844971,1,2,1,1,2,55.000000
2024-12-17 13:51:54.940,1.089036478443886,1.007736088292305,0.7146537362689241,1.005247352423499,0.9205768693968465,0.3999846982566128,0.4482353395721426,0.7006602228029717,0.6937161060354166,0.5797774792656828,0.5682587331264194,0.5911259002659922,1.053098713788791,1.080071109082132,0.4911494213006629,0.4559181276004988,0.9136954809123247,0.4473041889002609,-0.06528048957122792,0.48249311694501,782.893772893773,799.4139194139194,789.7435897435897,783.6996336996338,760.3296703296703,-0.190613,0.008423,0.836853,0.927124,-0.276642,23.821106,1,2,1,1,2,55.000000
2024-12-17 13:51:55.440,1.089036478443886,0.9109386341600151,0.8099089515298835,1.005247352423499,0.9205768693968465,0.5392309926592143,0.5432736817259624,0.7006602228029717,0.6937161060354166,0.8425902895624411,0.6026805233068984,0.5911259002659922,1.053098713788791,0.8919731191163291,0.5627817341064657,0.4559181276004988,0.9136954809123247,0.1764021197092986,0.09796013709333387,0.48249311694501,790.1465201465202,781.2820512820513,812.7106227106227,775.2380952380953,677.7289377289377,-0.199707,0.081482,0.856262,-4.329071,5.891724,-11.596527,1,2,1,1,2,55.000000
2024-12-17 13:51:55.750,,,,,,,,,,,,,,,,,,,,,,,,,,,,,,,,,,,,,,/muse/elements/blink
2024-12-17 13:51:55.948,1.089036478443886,0.9109386341600151,0.7958741041106029,1.325833499265681,0.9205768693968465,0.5392309926592143,0.5168569941059804,1.348495617203529,0.6937161060354166,0.8425902895624411,0.4779769483339193,1.120710232052913,1.053098713788791,0.8919731191163291,0.5917643948417139,1.213134091878253,0.9136954809123247,0.1764021197092986,0.09820771609069739,1.276786586934298,801.8315018315019,790.5494505494506,800.2197802197802,811.9047619047619,794.1758241758242,-0.166931,0.032410,0.736328,16.336823,-19.933167,9.039459,1,2,1,1,1,55.000000
2024-12-17 13:51:56.440,1.089036478443886,0.8595575074583841,0.8934023714804156,1.325833499265681,0.9205768693968465,0.5540207340042796,0.7176938879615575,1.348495617203529,0.6937161060354166,0.894142872598705,0.5490623901887279,1.120710232052913,1.053098713788791,0.8948995616274301,0.4221356278440914,1.213134091878253,0.9136954809123247,0.611241684094176,0.2284186616913154,1.276786586934298,813.1135531135532,819.1575091575091,819.1575091575091,812.7106227106227,963.8095238095239,-0.116760,0.153198,0.953430,4.426270,2.078552,-4.665527,1,1,1,1,1,55.000000
2024-12-17 13:51:56.581,,,,,,,,,,,,,,,,,,,,,,,,,,,,,,,,,,,,,,/muse/elements/blink
2024-12-17 13:51:56.939,1.089036478443886,0.7316022258207343,0.8298671021312466,1.325833499265681,0.9205768693968465,0.2972206359389998,0.7089970381470988,1.348495617203529,0.6937161060354166,0.9235204824463461,0.5388051563922981,1.120710232052913,1.053098713788791,1.094826233030177,0.3491844660067996,1.213134091878253,0.9136954809123247,0.7418649866156179,0.1644450952688132,1.276786586934298,906.1904761904763,801.025641025641,784.1025641025641,896.9230769230769,902.5641025641025,-0.410767,0.061951,1.186035,0.695343,15.207825,6.370239,1,1,1,1,1,55.000000
2024-12-17 13:51:56.961,,,,,,,,,,,,,,,,,,,,,,,,,,,,,,,,,,,,,,/muse/elements/blink
2024-12-17 13:51:57.440,1.089036478443886,0.7835682187687162,0.9229438155166366,1.325833499265681,0.9205768693968465,0.3221297299757475,0.904184263525295,1.348495617203529,0.6937161060354166,0.9235204824463461,0.7246212205309304,1.120710232052913,1.053098713788791,1.04929985784586,0.331553224327937,1.213134091878253,0.9136954809123247,0.7212082377340597,0.1188849496610976,1.276786586934298,395.6776556776557,820.3663003663004,794.5787545787546,840.9157509157509,694.2490842490843,-0.216492,0.112610,0.949280,-3.215027,3.446808,-4.568329,1,2,1,1,1,55.000000
2024-12-17 13:51:57.939,1.089036478443886,0.8652330986154281,0.8131254108931447,1.325833499265681,0.9205768693968465,0.3881664941683147,0.8047965014501537,1.348495617203529,0.6937161060354166,0.777997506968903,0.6519356440908142,1.120710232052913,1.053098713788791,1.016905567778435,0.3971699283131452,1.213134091878253,0.9136954809123247,0.6167657042228099,-0.09644720891839056,1.276786586934298,834.0659340659341,817.5457875457876,801.8315018315019,826.007326007326,629.3772893772893,-0.251587,0.165649,1.116394,5.697327,11.432037,12.665710,1,2,1,1,1,55.000000
2024-12-17 13:51:58.440,1.089036478443886,0.925194480708796,0.940908400665566,1.325833499265681,0.9205768693968465,0.4596363840886523,0.8443021020337911,1.348495617203529,0.6937161060354166,0.6860738314271658,0.682806224520338,1.120710232052913,1.053098713788791,0.89605135721799,0.3773029611583771,1.213134091878253,0.9136954809123247,0.5279710208934604,-0.1089221879718665,1.276786586934298,801.025641025641,797.3992673992674,801.025641025641,813.5164835164835,813.1135531135532,-0.306458,0.054321,0.949158,-1.757050,8.456268,-1.704712,1,2,1,1,2,55.000000
2024-12-17 13:51:58.944,1.089036478443886,0.9240460318952217,0.92598711302915,1.325833499265681,0.9205768693968465,0.4815274715719944,0.7619370810396633,1.348495617203529,0.6937161060354166,0.4891402125804446,0.6718088331597186,1.120710232052913,1.053098713788791,0.9176304593390447,0.2926045962660218,1.213134091878253,0.9136954809123247,0.4735653776849187,-0.08016459526169323,1.276786586934298,690.6227106227107,795.3846153846154,835.2747252747253,660.8058608058608,649.1208791208792,-0.324036,0.096313,0.829834,0.276642,9.121704,0.889740,1,2,1,1,2,55.000000
2024-12-17 13:51:59.210,,,,,,,,,,,,,,,,,,,,,,,,,,,,,,,,,,,,,,/muse/elements/blink
2024-12-17 13:51:59.440,1.089036478443886,0.967943188316429,1.000306298548929,1.325833499265681,0.9205768693968465,0.5319429121961611,0.7892883241819619,1.348495617203529,0.6937161060354166,0.3519038050027705,0.6340373704271544,1.120710232052913,1.053098713788791,0.9272080774660798,0.2289997282608177,1.213134091878253,0.9136954809123247,0.4196395285460377,-0.129797407708438,1.276786586934298,737.7655677655678,799.4139194139194,803.8461538461539,786.5201465201466,819.1575091575091,-0.177734,0.009338,0.702942,9.936676,-8.538513,3.058014,1,2,1,1,2,55.000000
2024-12-17 13:51:59.940,1.089036478443886,0.967943188316429,0.966693534822811,1.325833499265681,0.9205768693968465,0.5319429121961611,0.827967084514167,1.348495617203529,0.6937161060354166,0.3519038050027705,0.6340373704271544,1.120710232052913,1.053098713788791,0.9272080774660798,0.2388171180047721,1.213134091878253,0.9136954809123247,0.4196395285460377,-0.1889231906318333,1.276786586934298,727.2893772893773,817.948717948718,784.5054945054945,754.6886446886447,789.7435897435897,-0.196350,0.073181,0.786438,-0.119629,-20.172424,-9.532928,1,2,1,1,2,55.000000
2024-12-17 13:52:00.454,1.089036478443886,0.967943188316429,1.018039601115296,1.325833499265681,0.9205768693968465,0.5319429121961611,0.4517994535159143,1.348495617203529,0.6937161060354166,0.3519038050027705,0.6451365752013293,1.120710232052913,1.053098713788791,0.9272080774660798,0.4431035605329304,1.213134091878253,0.9136954809123247,0.4196395285460377,-0.02446029995639877,1.276786586934298,714.7985347985348,808.6813186813187,797.3992673992674,731.7216117216118,756.3003663003664,-0.162964,-0.016846,0.829529,2.856140,-20.695801,1.457977,1,2,1,1,2,55.000000
2024-12-17 13:52:00.628,,,,,,,,,,,,,,,,,,,,,,,,,,,,,,,,,,,,,,/muse/elements/blink
2024-12-17 13:52:00.940,1.089036478443886,0.967943188316429,0.9185267519450324,1.325833499265681,0.9205768693968465,0.5319429121961611,0.1759910011854257,1.348495617203529,0.6937161060354166,0.3519038050027705,0.5399269713349764,1.120710232052913,1.053098713788791,0.9272080774660798,0.5259653797265518,1.213134091878253,0.9136954809123247,0.4196395285460377,0.2048402029331505,1.276786586934298,870.7326007326008,794.1758241758242,800.2197802197802,818.7545787545788,893.2967032967033,-0.325562,0.089294,0.981445,-0.037384,0.119629,-0.844879,1,2,1,1,2,55.000000
2024-12-17 13:52:01.440,1.089036478443886,0.967943188316429,0.9550422359937373,1.325833499265681,0.9205768693968465,0.5319429121961611,0.3216902419654594,1.348495617203529,0.6937161060354166,0.3519038050027705,0.5408073178571228,1.120710232052913,1.053098713788791,0.9272080774660798,0.5173997840956527,1.213134091878253,0.9136954809123247,0.4196395285460377,0.2034326379564153,1.276786586934298,821.978021978022,814.7252747252747,811.0989010989011,780.8791208791209,666.4468864468864,-0.378235,0.081604,1.187561,2.385101,-1.173859,0.216827,1,2,1,1,2,55.000000
2024-12-17 13:52:01.946,1.089036478443886,0.967943188316429,0.8303938146608569,1.325833499265681,0.9205768693968465,0.5319429121961611,0.2655481446883937,1.348495617203529,0.6937161060354166,0.3519038050027705,0.5142769668256667,1.120710232052913,1.053098713788791,0.9272080774660798,0.4489078810433503,1.213134091878253,0.9136954809123247,0.4196395285460377,0.1609014814697402,1.276786586934298,587.0695970695971,796.996336996337,785.3113553113553,800.6227106227107,796.1904761904763,-0.516174,0.134644,1.292542,-6.482391,8.261871,-6.220703,1,2,1,1,2,55.000000
2024-12-17 13:52:02.440,1.089036478443886,1.169607207790919,0.7493229853450649,1.197410251782998,0.9205768693968465,0.8657648466260904,0.3204738436743366,0.8041121429706592,0.6937161060354166,0.8622414269259515,0.4522051206510201,0.8136197256916481,1.053098713788791,0.9873340938506741,0.3509006328048209,1.369826223690538,0.9136954809123247,0.5327629920760439,0.07754491096126501,1.347649930415972,835.2747252747253,796.1904761904763,800.6227106227107,825.2014652014652,662.8205128205128,-0.477905,0.124512,1.203186,2.714081,5.600128,5.891724,1,1,1,1,1,55.000000
2024-12-17 13:52:02.454,,,,,,,,,,,,,,,,,,,,,,,,,,,,,,,,,,,,,,/muse/elements/blink
2024-12-17 13:52:02.940,1.089036478443886,1.159269180260837,0.6382646595418511,1.197410251782998,0.9205768693968465,0.8726863456261961,0.3578038224161156,0.8041121429706592,0.6937161060354166,0.8656289599129622,0.6560707004709576,0.8136197256916481,1.053098713788791,0.8405503154133679,0.2288504706416936,1.369826223690538,0.9136954809123247,0.4175037570753422,-0.1060513055829244,1.347649930415972,836.0805860805862,801.8315018315019,797.3992673992674,786.1172161172161,907.8021978021978,-0.280396,0.064636,0.927856,7.334747,-2.459869,-0.635529,1,1,1,1,1,55.000000
2024-12-17 13:52:03.298,,,,,,,,,,,,,,,,,,,,,,,,,,,,,,,,,,,,,,/muse/elements/blink
2024-12-17 13:52:03.451,1.089036478443886,1.206233862933717,0.7603535772033593,1.184238093309886,0.9205768693968465,0.9021693888676726,0.4877462234301824,0.836132057020388,0.6937161060354166,0.7878857164906498,0.6944787571847674,0.7960369799817746,1.053098713788791,0.6791003278614003,0.2081398901874231,1.359525500445156,0.9136954809123247,0.3088344421440578,-0.2405470926888579,1.344582342442873,808.6813186813187,795.3846153846154,803.4432234432235,801.025641025641,630.1831501831502,-0.266602,0.095093,0.833923,2.975769,0.927124,3.858032,1,1,1,1,1,55.000000
2024-12-17 13:52:03.940,1.089036478443886,1.112522815070499,1.05654337200347,1.184238093309886,0.9205768693968465,0.8918467212354784,0.5283839395399046,0.836132057020388,0.6937161060354166,0.4290114376299585,0.6885970083538444,0.7960369799817746,1.053098713788791,0.3839376236614322,0.2163505353745029,1.359525500445156,0.9136954809123247,0.1793790903861938,-0.3120884459627261,1.344582342442873,772.014652014652,821.5750915750916,779.2673992673992,788.5347985347986,745.0183150183151,-0.247253,0.041321,0.725830,11.357269,-10.534821,19.499512,1,1,1,1,1,55.000000
2024-12-17 13:52:04.443,1.089036478443886,1.119794524406485,1.177765297232404,1.184238093309886,0.9205768693968465,0.8974495931614518,0.5455717648658509,0.836132057020388,0.6937161060354166,0.3958158786955224,0.7149448234603197,0.7960369799817746,1.053098713788791,0.3916753462891521,0.2200995458541777,1.359525500445156,0.9136954809123247,0.2098622076587838,-0.2090248795126729,1.344582342442873,801.8315018315019,788.1318681318681,789.3406593406594,805.4578754578755,694.2490842490843,-0.273804,0.095581,0.740479,0.852356,-16.277008,-10.235748,1,1,1,1,1,55.000000
2024-12-17 13:52:04.940,1.089036478443886,1.119794524406485,1.259291553180609,1.184238093309886,0.9205768693968465,0.8974495931614518,0.6744908932642544,0.836132057020388,0.6937161060354166,0.3958158786955224,0.7604551758631766,0.7960369799817746,1.053098713788791,0.3916753462891521,0.3013311408361179,1.359525500445156,0.9136954809123247,0.2098622076587838,-0.132518683590177,1.344582342442873,886.0439560439561,792.5641025641025,797.8021978021978,815.934065934066,797.8021978021978,-0.391602,-0.077942,0.909119,-9.458160,2.340240,-11.073151,1,1,1,1,1,55.000000
2024-12-17 13:52:05.440,1.089036478443886,1.119794524406485,1.071518253443443,1.184238093309886,0.9205768693968465,0.8974495931614518,0.877139939450566,0.836132057020388,0.6937161060354166,0.3958158786955224,0.7440536940059757,0.7960369799817746,1.053098713788791,0.3916753462891521,0.3339348782739422,1.359525500445156,0.9136954809123247,0.2098622076587838,-0.1121395994599248,1.344582342442873,919.8901098901099,788.5347985347986,758.7179487179487,817.5457875457876,676.9230769230769,-0.149780,0.088379,0.874023,-1.061707,-1.704712,-6.721649,1,2,1,1,2,55.000000
2024-12-17 13:52:05.939,1.089036478443886,1.119794524406485,1.029785141620855,1.184238093309886,0.9205768693968465,0.8974495931614518,0.9326213640287558,0.836132057020388,0.6937161060354166,0.3958158786955224,0.7661685226340538,0.7960369799817746,1.053098713788791,0.3916753462891521,0.3372717233434484,1.359525500445156,0.9136954809123247,0.2098622076587838,-0.114793143393567,1.344582342442873,513.7362637362637,800.2197802197802,751.8681318681319,811.5018315018315,779.6703296703297,-0.311157,0.001526,1.139343,-6.691742,-0.934601,4.112244,1,2,1,1,2,55.000000
2024-12-17 13:52:06.440,1.089036478443886,1.119794524406485,1.115886802884764,1.184238093309886,0.9205768693968465,0.8974495931614518,0.8122736608705633,0.836132057020388,0.6937161060354166,0.3958158786955224,0.6950842805538443,0.7960369799817746,1.053098713788791,0.3916753462891521,0.2384472728238947,1.359525500445156,0.9136954809123247,0.2098622076587838,-0.139693467836855,1.344582342442873,815.934065934066,782.4908424908425,796.996336996337,788.9377289377289,942.8571428571429,-0.433899,0.072693,1.138916,-1.046753,9.443207,1.951447,1,2,1,1,2,55.000000
2024-12-17 13:52:06.532,,,,,,,,,,,,,,,,,,,,,,,,,,,,,,,,,,,,,,/muse/elements/blink
2024-12-17 13:52:06.858,,,,,,,,,,,,,,,,,,,,,,,,,,,,,,,,,,,,,,/muse/elements/blink
2024-12-17 13:52:06.940,1.089036478443886,0.9057674081566066,1.27702100717241,1.184238093309886,0.9205768693968465,0.5157494378636127,0.6742859158863004,0.836132057020388,0.6937161060354166,0.8841385825925592,0.6277643292274712,0.7960369799817746,1.053098713788791,1.048553161831551,0.1358059560020992,1.359525500445156,0.9136954809123247,0.6893424791058967,-0.1267807649213827,1.344582342442873,823.1868131868132,794.1758241758242,812.3076923076924,856.6300366300367,774.4322344322345,-0.383118,0.142944,1.124329,2.325287,3.080444,9.899292,1,2,1,1,2,55.000000
2024-12-17 13:52:07.440,1.089036478443886,0.934196849727906,1.217514319075583,1.184238093309886,0.9205768693968465,0.5192095041978135,0.5565494644893645,0.836132057020388,0.6937161060354166,0.9016543190884789,0.5736963185592467,0.7960369799817746,1.053098713788791,1.048796602606813,0.2850606658029108,1.359525500445156,0.9136954809123247,0.6844035757506369,0.0383300558316129,1.344582342442873,867.9120879120879,794.981684981685,794.5787545787546,851.7948717948718,693.8461538461538,-0.391602,0.062744,1.043152,-0.568237,2.968292,-2.175751,1,2,1,1,2,55.000000
2024-12-17 13:52:07.558,,,,,,,,,,,,,,,,,,,,,,,,,,,,,,,,,,,,,,/muse/elements/blink
2024-12-17 13:52:07.950,1.089036478443886,0.9113592306906944,0.9957746851860211,1.184238093309886,0.9205768693968465,0.5188094741878996,0.7250196283288762,0.836132057020388,0.6937161060354166,0.8930550812987555,0.6454201430728296,0.7960369799817746,1.053098713788791,0.9308500475558152,0.3310022493968711,1.359525500445156,0.9136954809123247,0.6384958768346554,-0.05171756300902876,1.344582342442873,821.5750915750916,804.6520146520147,809.0842490842491,835.2747252747253,648.7179487179487,-0.229858,0.083801,0.768127,1.929016,3.274841,-2.654266,1,2,1,1,2,55.000000
2024-12-17 13:52:08.265,,,,,,,,,,,,,,,,,,,,,,,,,,,,,,,,,,,,,,/muse/elements/blink
2024-12-17 13:52:08.445,1.089036478443886,1.036906751756843,0.9719510705695614,1.184238093309886,0.9205768693968465,0.6166640369558799,0.679149956546968,0.836132057020388,0.6937161060354166,0.8800607359760484,0.6468966862146552,0.7960369799817746,1.053098713788791,0.6690904696441385,0.3255963856831999,1.359525500445156,0.9136954809123247,0.4881292671025703,-0.08853883671449431,1.344582342442873,874.3589743589744,792.5641025641025,802.6373626373627,818.7545787545788,761.941391941392,-0.303406,0.032654,0.845764,8.717957,-4.366455,-2.729034,1,2,1,1,2,55.000000
2024-12-17 13:52:08.940,1.089036478443886,1.03403940726474,0.9828618072256479,1.184238093309886,0.9205768693968465,0.6287487050877986,0.6958626057401016,0.836132057020388,0.6937161060354166,0.8415963231859986,0.5267850366784669,0.7960369799817746,1.053098713788791,0.5533261274355474,0.291721035259301,1.359525500445156,0.9136954809123247,0.4517993913472971,-0.2826210611110903,1.344582342442873,768.7912087912088,815.934065934066,799.4139194139194,776.0439560439561,809.8901098901099,-0.231262,0.072510,0.793396,-4.022522,-9.069366,-6.519775,1,2,1,1,2,55.000000
2024-12-17 13:52:09.440,1.089036478443886,1.072536838157565,0.9065054929065051,1.184238093309886,0.9205768693968465,0.6755580249770838,0.5575562109255568,0.836132057020388,0.6937161060354166,0.8415963231859986,0.5361870130539733,0.7960369799817746,1.053098713788791,0.5967776179159376,0.2966274961821918,1.359525500445156,0.9136954809123247,0.4274920144723308,-0.2549844719304754,1.344582342442873,817.5457875457876,812.3076923076924,799.8168498168499,784.9084249084249,711.5750915750916,-0.205261,0.018188,0.805420,6.168365,-15.319977,7.671204,1,2,1,1,2,55.000000
2024-12-17 13:52:09.940,1.089036478443886,1.12907171350826,1.024083092042282,1.184238093309886,0.9205768693968465,0.9714834171005008,0.6595523138445445,0.836132057020388,0.6937161060354166,0.6872193095097632,0.5078713570114278,0.7960369799817746,1.053098713788791,0.7366227419220659,0.2023597078816408,1.359525500445156,0.9136954809123247,0.3729123068365112,-0.2624417327959623,1.344582342442873,841.7216117216118,803.8461538461539,809.4871794871796,774.8351648351648,812.7106227106227,-0.353149,0.113525,0.904297,2.257996,-7.065582,-0.373840,1,2,1,1,2,55.000000
2024-12-17 13:52:10.189,,,,,,,,,,,,,,,,,,,,,,,,,,,,,,,,,,,,,,/muse/elements/blink
2024-12-17 13:52:10.440,1.089036478443886,1.019826019884544,1.037162047236881,1.184238093309886,0.9205768693968465,0.9844262721358141,0.6456393097041845,0.836132057020388,0.6937161060354166,0.8723642268007366,0.5708230952470846,0.7960369799817746,1.053098713788791,0.8198187351629036,0.1786118521379723,1.359525500445156,0.9136954809123247,0.5026617598661558,-0.1669525210874941,1.344582342442873,846.959706959707,800.6227106227107,803.4432234432235,785.3113553113553,646.3003663003664,-0.379456,-0.022461,1.169922,-5.846863,-0.785065,-1.884155,1,2,1,1,2,55.000000
2024-12-17 13:52:10.953,1.089036478443886,1.016885109413231,1.112772263761114,1.184238093309886,0.9205768693968465,1.005741540174111,0.6695696025688068,0.836132057020388,0.6937161060354166,0.8723642268007366,0.6111245030403064,0.7960369799817746,1.053098713788791,0.8249749757737209,0.2437101483021362,1.359525500445156,0.9136954809123247,0.5068094848442377,-0.08763548284353127,1.344582342442873,885.2380952380953,814.3223443223443,809.4871794871796,810.6959706959707,652.7472527472528,-0.185974,0.084473,0.854492,-2.818756,9.428253,-1.031799,1,2,1,1,2,55.000000
2024-12-17 13:52:11.441,1.089036478443886,0.8719696905559292,0.9336489586455968,1.184238093309886,0.9205768693968465,0.9588895876810509,0.3767036950791481,0.836132057020388,0.6937161060354166,0.8004868745135655,0.6159849122038215,0.7960369799817746,1.053098713788791,0.8914066915345283,0.3410080490303948,1.359525500445156,0.9136954809123247,0.5861141273831304,-0.1216140045812004,1.344582342442873,778.0586080586081,814.7252747252747,794.981684981685,773.6263736263736,717.2161172161173,-0.579163,0.119812,1.737488,7.947845,4.523468,6.691742,1,2,1,1,2,55.000000
2024-12-17 13:52:11.576,,,,,,,,,,,,,,,,,,,,,,,,,,,,,,,,,,,,,,/muse/elements/blink
2024-12-17 13:52:11.940,1.089036478443886,0.8291964047802726,0.7428573105054155,1.184238093309886,0.9205768693968465,0.5259816598568281,0.2637768596558288,0.836132057020388,0.6937161060354166,0.4811700717729203,0.6312620006093852,0.7960369799817746,1.053098713788791,0.8619196823696694,0.3395114998366435,1.359525500445156,0.9136954809123247,0.5461383020441203,-0.1536872256545888,1.344582342442873,771.6117216117216,818.3516483516484,803.4432234432235,828.4249084249085,764.3589743589744,-0.222900,0.025208,0.985779,3.588867,-10.175934,-8.030090,1,2,1,1,2,55.000000
2024-12-17 13:52:12.447,1.089036478443886,0.9736840684339721,0.7307827870174399,1.184238093309886,0.9205768693968465,0.6544370081316789,0.2998322991358609,0.836132057020388,0.6937161060354166,0.715322312188473,0.706581139354246,0.7960369799817746,1.053098713788791,0.9637984978582275,0.3895406944470417,1.359525500445156,0.9136954809123247,0.5913169148079798,-0.1726763505785129,1.344582342442873,922.3076923076924,792.967032967033,804.6520146520147,786.1172161172161,649.92673992674,-0.223022,0.117737,0.809570,3.985138,11.088104,-1.981354,1,2,1,1,2,55.000000
2024-12-17 13:52:12.514,,,,,,,,,,,,,,,,,,,,,,,,,,,,,,,,,,,,,,/muse/elements/blink
2024-12-17 13:52:12.940,1.089036478443886,0.9710948487335743,0.8659239317325083,1.184238093309886,0.9205768693968465,0.6529863135666226,0.4726209875542082,0.836132057020388,0.6937161060354166,0.7164740919752242,0.6537935454386646,0.7960369799817746,1.053098713788791,0.9711052365961879,0.3897866228853039,1.359525500445156,0.9136954809123247,0.5831824083627728,-0.0361086732403337,1.344582342442873,838.901098901099,796.1904761904763,800.2197802197802,787.3260073260074,778.8644688644689,-0.075806,0.012512,0.793213,2.893524,-13.899384,2.676697,1,2,1,1,2,55.000000
2024-12-17 13:52:13.440,1.089036478443886,1.064133267949331,0.9433427130430188,1.184238093309886,0.9205768693968465,0.7383969544369412,0.5665805885771575,0.836132057020388,0.6937161060354166,0.6770584469587233,0.6904719199367488,0.7960369799817746,1.053098713788791,1.046848956325533,0.3667072443165825,1.359525500445156,0.9136954809123247,0.6125988861972778,0.0305041651003458,1.344582342442873,849.7802197802198,772.014652014652,801.4285714285714,805.0549450549451,855.4212454212454,-0.198303,0.087341,0.921875,3.902893,-23.409882,-12.224579,1,2,1,1,2,55.000000
2024-12-17 13:52:13.940,1.089036478443886,0.9431410691204892,0.7856208312748146,1.184238093309886,0.9205768693968465,0.6189786404154719,0.5342101502175068,0.836132057020388,0.6937161060354166,0.8245266462836151,0.4935076550275945,0.7960369799817746,1.053098713788791,1.117486561540571,0.186429296724107,1.359525500445156,0.9136954809123247,0.7727548775948995,0.09893454729722452,1.344582342442873,821.1721611721612,801.8315018315019,799.4139194139194,832.0512820512821,771.2087912087912,-0.207581,-0.014771,0.987305,3.185120,-3.372040,6.370239,1,2,1,1,2,55.000000
2024-12-17 13:52:14.440,1.089036478443886,0.9431410691204892,0.4746547021849338,1.184238093309886,0.9205768693968465,0.6189786404154719,0.3547967314137222,0.836132057020388,0.6937161060354166,0.8245266462836151,0.4865582171325679,0.7960369799817746,1.053098713788791,1.117486561540571,0.1508927746649164,1.359525500445156,0.9136954809123247,0.7727548775948995,0.03984045356270348,1.344582342442873,924.7252747252747,830.0366300366301,810.2930402930403,851.7948717948718,826.4102564102565,-0.201294,0.148926,0.935791,5.772095,5.061798,8.321686,1,2,1,1,2,45.000000
2024-12-17 13:52:14.457,,,,,,,,,,,,,,,,,,,,,,,,,,,,,,,,,,,,,,/muse/elements/blink
2024-12-17 13:52:14.856,,,,,,,,,,,,,,,,,,,,,,,,,,,,,,,,,,,,,,/muse/elements/blink
2024-12-17 13:52:14.940,1.089036478443886,0.9431410691204892,0.6899924821383231,1.184238093309886,0.9205768693968465,0.6189786404154719,0.5234758175145445,0.836132057020388,0.6937161060354166,0.8245266462836151,0.7613420141373877,0.7960369799817746,1.053098713788791,1.117486561540571,0.2926380918135712,1.359525500445156,0.9136954809123247,0.7727548775948995,0.06083382045553223,1.344582342442873,716.8131868131868,807.4725274725275,786.5201465201466,806.2637362637363,959.7802197802198,-0.536987,0.103516,1.639465,7.716064,0.523376,-6.945953,1,2,1,1,2,45.000000
2024-12-17 13:52:15.397,,,,,,,,,,,,,,,,,,,,,,,,,,,,,,,,,,,,,,/muse/elements/blink
2024-12-17 13:52:15.397,,,,,,,,,,,,,,,,,,,,,,,,,,,,,,,,,,,,,,/muse/elements/jaw_clench
2024-12-17 13:52:15.440,1.089036478443886,1.08166577787454,0.8774134799638039,1.184238093309886,0.9205768693968465,1.004540495861694,0.5753495870673366,0.836132057020388,0.6937161060354166,0.9064787499473057,0.798156580425984,0.7960369799817746,1.053098713788791,1.001477040331375,0.4099319721166441,1.359525500445156,0.9136954809123247,1.033003049914192,0.04610930837302376,1.344582342442873,91.46520146520147,809.8901098901099,779.2673992673992,863.0769230769231,915.8608058608058,-0.429321,0.094421,1.140625,9.263763,-7.611389,-53.504028,1,2,1,1,2,45.000000
2024-12-17 13:52:15.940,1.089036478443886,1.08166577787454,0.9995178480438993,1.184238093309886,0.9205768693968465,1.004540495861694,0.7574845857017924,0.836132057020388,0.6937161060354166,0.9064787499473057,0.8520426733415885,0.7960369799817746,1.053098713788791,1.001477040331375,0.4794293599185263,1.359525500445156,0.9136954809123247,1.033003049914192,0.1838513770556393,1.344582342442873,831.2454212454213,801.4285714285714,789.3406593406594,806.6666666666667,630.989010989011,-0.292664,0.070129,0.883179,7.925415,9.824524,-26.168823,1,2,1,1,2,45.000000
2024-12-17 13:52:16.442,1.089036478443886,1.08166577787454,1.038278193901754,1.184238093309886,0.9205768693968465,1.004540495861694,0.7417829717377923,0.836132057020388,0.6937161060354166,0.9064787499473057,0.8093143208265866,0.7960369799817746,1.053098713788791,1.001477040331375,0.5066055570408898,1.359525500445156,0.9136954809123247,1.033003049914192,0.3148948643505026,1.344582342442873,805.4578754578755,805.0549450549451,812.7106227106227,844.5421245421246,605.2014652014652,-0.202454,-0.017883,0.768799,5.899200,-15.985413,-49.653473,1,2,1,1,2,45.000000
2024-12-17 13:52:16.940,1.089036478443886,1.08166577787454,1.049883968028463,1.184238093309886,0.9205768693968465,1.004540495861694,0.7462326425582152,0.836132057020388,0.6937161060354166,0.9064787499473057,0.7307612032889003,0.7960369799817746,1.053098713788791,1.001477040331375,0.4974175127970454,1.359525500445156,0.9136954809123247,1.033003049914192,0.3147452756393589,1.344582342442873,804.2490842490843,799.4139194139194,799.4139194139194,821.5750915750916,745.8241758241759,-0.198975,0.183472,1.004211,4.807587,-6.056213,-24.695892,1,2,1,1,2,45.000000
