TimeStamp,Delta_TP9,Delta_AF7,Delta_AF8,Delta_TP10,Theta_TP9,Theta_AF7,Theta_AF8,Theta_TP10,Alpha_TP9,Alpha_AF7,Alpha_AF8,Alpha_TP10,Beta_TP9,Beta_AF7,Beta_AF8,Beta_TP10,Gamma_TP9,Gamma_AF7,Gamma_AF8,Gamma_TP10,RAW_TP9,RAW_AF7,RAW_AF8,RAW_TP10,AUX_RIGHT,AUX_LEFT,Accelerometer_X,Accelerometer_Y,Accelerometer_Z,Gyro_X,Gyro_Y,Gyro_Z,HeadBandOn,HSI_TP9,HSI_AF7,HSI_AF8,HSI_TP10,Battery,Elements
2025-01-05 12:47:59.761,,,,,,,,,,,,,,,,,,,,,,,,,,,,,,,,,,,,,,,/muse/event/connected MuseS-9CF6
2025-01-05 12:48:00.263,0.6139805723723929,-0.1564952882351901,-0.1182155392866165,0.4853045781237535,0.3526288856192817,-0.1170727362165128,-0.3067235759993833,0.3919145631673385,0.8114539103287051,0.478435365161394,0.2295661937472394,0.7006602892183388,0.8766730710873358,0.4929954869440944,0.1450607707541001,0.5918378387913585,0.4566764331277535,0.5820552250945303,-0.08623879928016552,0.09902282906195777,783.2967032967033,808.2783882783883,807.0695970695971,804.6520146520147,863.4798534798535,825.2014652014652,-0.190979,0.027954,0.975586,0.560760,-2.811279,-2.280426,1,1,1,1,1,91.000000
2025-01-05 12:48:00.762,0.6715880801181081,-0.2630516750351259,-0.2026882455168968,0.6589778734945634,0.3582805511968317,-0.3088200669706063,-0.3669997209073126,0.4800990226817816,0.8370068835499728,0.3775353534010069,0.1773400599422811,0.5725959426463817,0.8289937936897018,0.4604790708358943,0.1313666274514858,0.5926219545941498,0.536558243132072,0.5069838089899954,-0.09662186611297906,0.2370807905839105,823.5897435897436,806.2637362637363,803.040293040293,799.0109890109891,787.3260073260074,741.3919413919414,-0.182190,0.016968,0.981628,-0.142059,-0.672913,0.732727,1,1,1,1,1,91.000000
2025-01-05 12:48:01.261,0.727154356791452,0.1287260639337886,-0.2266042395423112,0.7173618296480634,0.5377668221012928,-0.12979251484378,-0.1873785098428996,0.5172595666102822,0.8234952471318957,0.61540967150708,0.1875875606654599,0.5406218905881485,0.8256256448515626,0.4817475450969032,0.2003394971505037,0.5566256478565756,0.6165740089563821,0.464166426406367,-0.01681912299222146,0.3707429641122856,798.6080586080586,803.8461538461539,808.6813186813187,802.6373626373627,747.032967032967,685.3846153846154,-0.191223,0.035583,0.977661,0.538330,-1.443024,1.854248,1,1,1,1,1,91.000000
2025-01-05 12:48:01.762,0.628608266736451,0.1187261676348953,-0.2264723699524524,0.7293225328023563,0.5535233926544548,-0.1795462111214392,-0.1652837703596421,0.4381734708979405,0.8068114620110828,0.5371038662094175,0.2394946363186875,0.5007481601799841,0.8181236863105356,0.5375279682615342,0.2840879129402111,0.5927778065477255,0.6976737269236849,0.4960476098801136,0.06874814866917595,0.3907716965113164,813.1135531135532,804.6520146520147,798.6080586080586,806.6666666666667,822.3809523809524,765.9706959706959,-0.190674,0.022400,0.980530,0.717773,0.515900,0.403748,1,1,1,1,1,91.000000
2025-01-05 12:48:02.262,0.681414961552204,0.09443859822338396,-0.3199423495581858,0.5141526156676632,0.5905800038709706,-0.2192583090643385,-0.01004912134005452,0.3395564380251503,0.9345404337617218,0.5394621535796702,0.2541710875828398,0.5267740617577505,0.831682305302906,0.5763973155500733,0.3501789948647084,0.5604927043613647,0.7907065998378009,0.5033343697264525,0.1468811295715017,0.4420156521008958,794.5787545787546,794.1758241758242,794.1758241758242,791.7582417582418,790.952380952381,701.9047619047619,-0.175354,0.028564,0.985046,0.635529,-0.231781,-1.330872,1,1,1,1,1,91.000000
2025-01-05 12:48:02.762,0.7384208982505833,-0.4103890322395904,-0.4239057417687454,0.4598003943328805,0.5332710815971162,-0.463955338268972,0.001130845197334614,0.2448585802526873,0.9382686838170282,0.3278714644765345,0.3445401283637801,0.5348179727841366,0.8355472083023138,0.6487204249939753,0.4174016138903598,0.5197708559652476,0.7852095628745456,0.5160926771057157,0.2276982470116591,0.5219175971278726,797.8021978021978,802.6373626373627,804.6520146520147,820.7692307692308,877.5824175824176,756.3003663003664,-0.179382,0.029175,0.996582,0.575714,-1.727142,0.725250,1,1,1,1,1,91.000000
2025-01-05 12:48:03.262,0.8540792571483025,-0.01535374411885354,-0.3779409124581401,0.6671026882570263,0.7351219928429655,-0.09080508379135684,-0.001503335793808967,0.494287990539205,1.094338780742747,0.7231123602425642,0.3631027828357649,0.7574509912494973,0.8846157365244405,0.6073213610204637,0.4079278909098337,0.7043941651070521,0.7656474555078655,0.5357722029780509,0.3401395748202229,0.615585776527134,807.8754578754579,811.9047619047619,792.5641025641025,802.6373626373627,908.6080586080586,798.6080586080586,-0.179504,0.019897,0.975220,-0.336456,-2.011261,-0.530853,1,1,1,1,1,91.000000
2025-01-05 12:48:03.762,0.8563234629014206,0.2461299376927765,-0.4059877374804284,0.8032119748216804,0.8186675395295384,0.1190847519063934,-0.1783649093837705,0.6195556394662739,1.036854230433323,0.7192956406167563,0.3987333936626415,0.7321347665941554,0.9140794712522586,0.6760902703082332,0.4081492078651919,0.8001448106602183,0.725214415954237,0.667825189402352,0.3878897079706422,0.6616571316324885,799.0109890109891,809.0842490842491,805.0549450549451,810.2930402930403,834.8717948717949,919.8901098901099,-0.151611,0.026917,0.977539,-0.373840,-3.319702,-0.186920,1,1,1,1,1,91.000000
2025-01-05 12:48:04.269,0.7977258921084454,0.2559343454080438,-0.4022767907735596,0.9307462400498845,0.7692033927798587,0.1185268686406735,-0.3904963845376873,0.5913194886394858,1.029581953936624,0.7192956406167563,0.4245871735255285,0.7304061757274704,0.8251715852517515,0.7013786703943176,0.4115727581374116,0.9555616072680418,0.729644819286061,0.6945447533127644,0.2954378872429285,0.8804902742345921,802.6373626373627,799.8168498168499,791.7582417582418,807.4725274725275,848.5714285714286,790.1465201465202,-0.184875,0.014709,0.970825,0.201874,-0.986938,1.360779,1,1,1,1,1,91.000000
2025-01-05 12:48:04.773,0.2997069673253116,0.09424342583799725,-0.4014325502869623,0.4657644455684377,-0.1125332252244422,0.1061021121891053,-0.236813884949492,0.002809817497017931,0.8282205929993786,0.6401538826305022,0.4828325895852392,0.2981501473456132,0.7717065465996168,0.721905895396165,0.3946676501292031,0.8153661971965419,0.8171705042488353,0.7014949537218556,0.1328420630519112,0.9105537182846261,779.2673992673992,789.3406593406594,797.3992673992674,793.3699633699634,798.2051282051282,716.4102564102565,-0.156311,0.015076,0.988586,-1.914062,-5.203857,-3.805695,1,1,1,1,1,91.000000
2025-01-05 12:48:05.263,0.2997069673253116,-0.1343539101272996,-0.3568892212885941,0.4657644455684377,-0.1125332252244422,0.1781405463777762,-0.08317420290211039,0.002809817497017931,0.8282205929993786,0.750232568708472,0.624075345777069,0.2981501473456132,0.7717065465996168,0.7788785718189204,0.423331355544412,0.8153661971965419,0.8171705042488353,0.5701686710576587,-0.0004282200459868305,0.9105537182846261,747.8388278388279,797.8021978021978,798.6080586080586,767.5824175824176,854.2124542124542,722.4542124542124,-0.189941,-0.080688,0.972290,0.112152,-4.650574,8.972168,1,1,1,1,1,91.000000
2025-01-05 12:48:05.762,0.1197332819473211,0.03945149561558951,-0.3399611994009151,1.115441010858646,-0.04274317832900111,0.3533449404897234,-0.04237008357878179,0.8033858165052411,0.7260729513279437,0.7741011016137246,0.624075345777069,0.7081963800310936,0.8633509902916217,0.8749472600241033,0.3847703734503761,0.8325687669346006,0.8398498991456688,0.6710739902580557,0.1155057213865173,0.6651820527240794,848.974358974359,821.5750915750916,816.7399267399268,813.5164835164835,954.5421245421246,1036.336996336996,0.006958,0.137329,0.925842,5.144043,-18.751831,-14.534912,1,1,1,1,1,91.000000
2025-01-05 12:48:06.262,0.1637672957725541,0.3609124140291625,-0.0552592372906276,1.446005291599803,-0.01858498021614963,0.4273906547953797,0.06433367102273926,1.10742491903599,0.6876038464727697,0.7782508433992608,0.5656537323168601,0.7000908990719108,0.8952056173798618,0.8754063931077282,0.4086520049213624,0.9371955454860343,0.8717579771748221,0.6710844701193217,0.2024425023880383,0.3065873020490806,777.2527472527473,792.1611721611722,790.1465201465202,754.2857142857143,809.4871794871796,921.9047619047619,-0.226562,0.051514,1.175720,-2.990723,6.295471,7.536621,1,1,1,1,1,91.000000
2025-01-05 12:48:06.762,0.1637672957725541,0.9440581376035303,0.3420351560041085,1.446005291599803,-0.01858498021614963,0.6864369878898448,0.3070105096582773,1.10742491903599,0.6876038464727697,0.775077994443597,0.4640785333259101,0.7000908990719108,0.8952056173798618,0.9111143092444058,0.403465593387519,0.9371955454860343,0.8717579771748221,0.7428426020068079,0.4146068802562036,0.3065873020490806,816.3369963369963,797.8021978021978,803.8461538461539,798.6080586080586,1136.263736263736,1487.619047619048,-0.259888,-0.113647,1.023438,1.248627,12.381592,-11.140442,1,1,1,1,1,91.000000
2025-01-05 12:48:07.261,0.1637672957725541,1.131596416074647,0.5180199428076203,1.370603567716613,-0.01858498021614963,0.9027016170300907,0.4091405549013459,1.24489379201568,0.6876038464727697,0.7332025980231327,0.5996028510956704,1.160150486743512,0.8952056173798618,0.8337673262523795,0.4276486896514292,0.7996870791288108,0.8717579771748221,0.7135039336468632,0.4088259378032982,0.5566843634210537,774.8351648351648,800.6227106227107,792.5641025641025,779.2673992673992,1010.549450549451,1102.820512820513,-0.204346,0.015076,1.136292,0.650482,-5.794525,25.712738,1,1,1,1,1,91.000000
2025-01-05 12:48:07.763,0.1637672957725541,1.268622854111317,0.6212157682727447,1.365469166974925,-0.01858498021614963,1.121155420105275,0.5227603376158281,1.367306417101242,0.6876038464727697,0.8672074926271487,0.7765953787266745,1.261843362159688,0.8952056173798618,0.8555562734214666,0.5026832456881973,0.8359439683532131,0.8717579771748221,0.7145640022595938,0.4134970788139593,0.6332794765052717,680.1465201465202,776.4468864468864,790.952380952381,772.4175824175825,1079.450549450549,1251.098901098901,-0.201050,-0.044189,1.012268,5.241241,12.815247,-3.611298,1,1,1,1,1,91.000000
2025-01-05 12:48:08.036,,,,,,,,,,,,,,,,,,,,,,,,,,,,,,,,,,,,,,,/muse/elements/blink
2025-01-05 12:48:08.262,0.1637672957725541,1.257206270068614,0.864097727704914,1.384673330192764,-0.01858498021614963,1.214514727145295,0.6413493415120318,1.376622185179396,0.6876038464727697,0.8595811698648694,0.7546154670194413,1.261843362159688,0.8952056173798618,0.7854849902540644,0.5643218742017267,0.844757077328613,0.8717579771748221,0.7281822310411188,0.2570294867427234,0.6324860667996119,905.3846153846154,823.1868131868132,823.1868131868132,850.1831501831502,934.3956043956044,1030.29304029304,-0.297729,0.099670,0.898743,-3.065491,-1.457977,11.132965,1,1,1,1,1,91.000000
2025-01-05 12:48:08.551,,,,,,,,,,,,,,,,,,,,,,,,,,,,,,,,,,,,,,,/muse/elements/blink
2025-01-05 12:48:08.762,0.1637672957725541,1.250484427125982,0.9682036178486632,1.393806156586099,-0.01858498021614963,1.282212232605062,0.7743511024306594,1.44644664479157,0.6876038464727697,0.8566073396383126,0.7546154670194413,1.23769163554846,0.8952056173798618,0.6822294550691599,0.5454822385618575,0.8723986076790323,0.8717579771748221,0.5693993719792388,0.2154207469715157,0.6765438726381171,888.8644688644689,821.978021978022,809.4871794871796,825.6043956043957,726.8864468864469,677.3260073260074,-0.130188,0.015991,0.951355,3.813171,-3.005676,4.329071,1,1,1,1,1,91.000000
2025-01-05 12:48:09.275,0.1637672957725541,1.245942585640573,1.016465044790759,1.445464804930132,-0.01858498021614963,1.262288499336312,0.828203027253027,1.453637045402052,0.6876038464727697,0.9823189124662624,0.5643700428886084,1.103119138222121,0.8952056173798618,0.5394160848617922,0.4579509868745646,0.8921342828224852,0.8717579771748221,0.4436839339285846,0.1994855450204631,0.669519127003332,925.934065934066,805.8608058608058,817.1428571428571,850.5860805860806,711.5750915750916,533.8827838827839,-0.259949,0.113342,0.897705,-0.777588,7.588959,-14.355469,1,1,1,1,1,91.000000
2025-01-05 12:48:09.762,0.1637672957725541,1.225176476067449,0.9985526966106746,1.445464804930132,-0.01858498021614963,1.28876517448315,0.868679004681292,1.453637045402052,0.6876038464727697,0.9682544471442592,0.5131074092719232,1.103119138222121,0.8952056173798618,0.5010448720480598,0.4208147417786349,0.8921342828224852,0.8717579771748221,0.3765101007030259,0.2133987159772719,0.669519127003332,835.6776556776557,813.5164835164835,803.040293040293,799.8168498168499,536.7032967032967,122.0879120879121,-0.164612,0.005188,0.846924,6.071167,4.119720,-11.073151,1,1,1,1,1,91.000000
2025-01-05 12:48:10.044,,,,,,,,,,,,,,,,,,,,,,,,,,,,,,,,,,,,,,,/muse/elements/blink
2025-01-05 12:48:10.262,0.1637672957725541,1.242860814085414,0.9251405449280831,1.607700227406439,-0.01858498021614963,1.304270933593273,0.8591144590263052,1.558988057713523,0.6876038464727697,0.9682544471442592,0.553472954853135,1.088107446807673,0.8952056173798618,0.5179577886473125,0.439699775793353,0.8863590447384694,0.8717579771748221,0.3785811743411675,0.2290279216841435,0.7166710274992353,871.5384615384615,811.9047619047619,815.5311355311355,798.2051282051282,510.1098901098901,33.44322344322345,-0.130676,0.054810,0.879456,-4.957123,3.372040,-18.647156,1,1,1,1,1,91.000000
2025-01-05 12:48:10.762,0.1637672957725541,1.214401056660315,0.9211807574617892,1.593302587014793,-0.01858498021614963,1.389633874835907,0.8063810749896736,1.58727017736432,0.6876038464727697,0.9877341006477217,0.7863725508320374,1.242488368058954,0.8952056173798618,0.8031526208573998,0.5647907617903869,0.877357414062111,0.8717579771748221,0.5532829781661315,0.2952188553964715,0.6584979779757237,895.3113553113553,822.7838827838829,811.9047619047619,854.6153846153846,730.1098901098901,675.3113553113553,-0.173767,-0.026428,0.891357,8.545990,8.209534,-2.901001,1,1,1,1,1,91.000000
2025-01-05 12:48:11.075,,,,,,,,,,,,,,,,,,,,,,,,,,,,,,,,,,,,,,,/muse/elements/blink
2025-01-05 12:48:11.262,0.1637672957725541,1.201995685757423,0.7914456795420071,1.584662673986126,-0.01858498021614963,1.428314164150532,0.7210858349205407,1.573860354869958,0.6876038464727697,1.067899098776496,0.7951224612310276,1.23259642591515,0.8952056173798618,0.9703338303608461,0.6734489680155051,0.8851718018403735,0.8717579771748221,0.5977422259965514,0.3192098367269279,0.6930707343446781,835.6776556776557,806.2637362637363,807.4725274725275,826.007326007326,287.2893772893773,0,-0.196472,-0.048828,0.782227,-12.860107,6.018829,-12.815247,1,1,1,1,1,91.000000
2025-01-05 12:48:11.615,,,,,,,,,,,,,,,,,,,,,,,,,,,,,,,,,,,,,,,/muse/elements/blink
2025-01-05 12:48:11.769,0.1637672957725541,1.201995685757423,0.7989351583774558,1.63799234414002,-0.01858498021614963,1.428314164150532,0.8469899114999272,1.725377935710227,0.6876038464727697,1.067899098776496,0.8417320473657788,1.187383866346776,0.8952056173798618,0.9703338303608461,0.6525143544563174,0.9117887473230482,0.8717579771748221,0.5977422259965514,0.296277031599482,0.7154596421489073,836.0805860805862,793.3699633699634,801.4285714285714,808.2783882783883,541.1355311355311,140.6227106227106,-0.217834,-0.085632,0.930115,13.032074,13.817139,9.435730,1,2,1,1,1,91.000000
2025-01-05 12:48:12.262,0.1637672957725541,1.222958490027414,0.7088757256932062,1.613686913672848,-0.01858498021614963,1.418341651913072,0.9066617850004558,1.677734832480557,0.6876038464727697,1.127511856847109,0.720255215633285,1.311808234113109,0.8952056173798618,1.135446375893575,0.6388564487291747,1.111680122861198,0.8717579771748221,0.8311689413033562,0.2213258843314756,0.8940833740044378,897.7289377289378,820.7692307692308,819.5604395604396,827.2161172161173,823.5897435897436,822.7838827838829,-0.236938,0.002502,0.875916,-8.336639,10.071259,-9.031982,1,2,1,1,1,91.000000
2025-01-05 12:48:12.714,,,,,,,,,,,,,,,,,,,,,,,,,,,,,,,,,,,,,,,/muse/elements/blink
2025-01-05 12:48:12.773,0.1637672957725541,1.151134580495467,0.6846052189838745,1.580364051411602,-0.01858498021614963,1.392035485349365,0.957853550846709,1.695679455769087,0.6876038464727697,1.172224297497116,0.7860423413916444,1.336892560645478,0.8952056173798618,1.173901819754075,0.5565394432511466,1.104772451413364,0.8717579771748221,0.93819920897241,0.2520366128247605,0.9163408198068491,952.9304029304029,829.6336996336996,811.9047619047619,863.8827838827839,1147.545787545788,1550.476190476191,-0.242249,-0.019409,0.910889,10.774078,18.654633,16.209717,1,2,1,1,1,91.000000
2025-01-05 12:48:13.110,,,,,,,,,,,,,,,,,,,,,,,,,,,,,,,,,,,,,,,/muse/elements/blink
2025-01-05 12:48:13.262,0.1637672957725541,1.131192203462316,0.7421638565480241,1.51546018832742,-0.01858498021614963,1.351887900041269,0.8366377511867453,1.600487040161906,0.6876038464727697,1.172224297497116,0.760543531348304,1.336892560645478,0.8952056173798618,1.163846758635256,0.6004687383029068,1.127170921001087,0.8717579771748221,0.8219960025241464,0.2842810275090102,0.921751658004698,922.3076923076924,840.9157509157509,811.0989010989011,847.7655677655678,1011.355311355311,1376.813186813187,-0.320740,0.038940,1.002075,-5.742188,12.890015,-10.295563,1,2,1,1,1,91.000000
2025-01-05 12:48:13.762,0.1637672957725541,1.098381444624811,0.9132576992209638,1.466920541408606,-0.01858498021614963,1.363277512724511,0.8194775179379009,1.64098756452846,0.6876038464727697,1.048425764879968,0.7659820839812375,1.222216512510431,0.8952056173798618,1.114535145319636,0.6751875175895845,1.063637857283935,0.8717579771748221,0.671250722613657,0.3222377681715444,0.9246424481443843,915.0549450549451,799.8168498168499,806.6666666666667,792.5641025641025,1232.967032967033,1628.644688644689,-0.273010,-0.097412,1.016174,10.721741,9.637604,0.478516,1,2,1,1,1,91.000000
2025-01-05 12:48:14.032,,,,,,,,,,,,,,,,,,,,,,,,,,,,,,,,,,,,,,,/muse/elements/blink
2025-01-05 12:48:14.223,,,,,,,,,,,,,,,,,,,,,,,,,,,,,,,,,,,,,,,/muse/elements/blink
2025-01-05 12:48:14.262,0.1637672957725541,1.116694128276494,0.9654198035765815,1.466920541408606,-0.01858498021614963,1.327638339463322,0.8258681907537603,1.64098756452846,0.6876038464727697,0.7323065019995109,0.6430149399327836,1.222216512510431,0.8952056173798618,1.124462256524595,0.700856788909293,1.063637857283935,0.8717579771748221,0.5449111941032642,0.287608451166572,0.9246424481443843,894.908424908425,796.5934065934066,793.7728937728938,817.948717948718,1007.326007326007,1256.739926739927,-0.230957,0.017822,1.007812,0.396271,-0.971985,-6.751556,1,2,1,1,1,91.000000
2025-01-05 12:48:14.766,0.1637672957725541,1.157255533589684,0.9340560032929097,1.609379529609597,-0.01858498021614963,1.368795062461453,0.8931105430772912,1.763251939429952,0.6876038464727697,0.6317332231572355,0.6541924612610158,1.419793525422249,0.8952056173798618,1.094512092733617,0.6924766551311337,1.108727908585394,0.8717579771748221,0.555093730501162,0.3647360447132499,1.053529225786607,902.1611721611722,826.4102564102565,805.8608058608058,836.8864468864469,1358.681318681319,1622.197802197802,-0.234863,-0.007690,1.101440,4.673004,0.613098,-13.226471,1,2,1,1,1,91.000000
2025-01-05 12:48:15.082,,,,,,,,,,,,,,,,,,,,,,,,,,,,,,,,,,,,,,,/muse/elements/blink
2025-01-05 12:48:15.263,0.1637672957725541,1.218853173585886,0.8515043765656451,1.571183463878103,-0.01858498021614963,1.3431839786158,0.8649075959530979,1.674747764216733,0.6876038464727697,0.9073065103547088,0.5396848093227677,1.442916458687987,0.8952056173798618,0.7374990947334743,0.5737993474266444,1.116520601008197,0.8717579771748221,0.8151559311125318,0.4368063893838547,1.006556816676355,918.2783882783883,805.0549450549451,810.2930402930403,840.5128205128206,997.6556776556777,1342.161172161172,-0.335083,0.061584,1.044434,-7.252502,4.501038,-1.532745,1,2,1,1,1,91.000000
2025-01-05 12:48:15.762,0.1637672957725541,1.165067352475086,0.9093971506756584,1.571183463878103,-0.01858498021614963,1.369901662455689,0.9050057456072884,1.674747764216733,0.6876038464727697,0.9600499823401206,0.575749111905258,1.442916458687987,0.8952056173798618,0.8402439248484208,0.5701109385705683,1.116520601008197,0.8717579771748221,0.6685719652209005,0.475279874486327,1.006556816676355,885.2380952380953,825.6043956043957,810.2930402930403,811.0989010989011,630.989010989011,487.1428571428572,-0.242310,-0.022217,0.984741,9.114227,6.960907,4.172058,1,2,1,1,1,91.000000
2025-01-05 12:48:16.067,,,,,,,,,,,,,,,,,,,,,,,,,,,,,,,,,,,,,,,/muse/elements/blink
2025-01-05 12:48:16.261,0.1637672957725541,1.218662673400068,0.8480721417494933,1.523598026141312,-0.01858498021614963,1.383176920433106,0.8355427311418685,1.529403809134946,0.6876038464727697,1.041023081239253,0.6775972272256124,1.27835717351749,0.8952056173798618,0.8732200054493285,0.6234318981828834,1.120712599601384,0.8717579771748221,0.6617815274579194,0.4414084500502519,0.9520814309722356,936.8131868131868,828.8278388278388,810.2930402930403,832.0512820512821,997.6556776556777,1184.212454212454,-0.253967,0.078186,0.978027,-5.973969,7.902985,0.515900,1,2,1,1,1,91.000000
2025-01-05 12:48:16.766,0.1637672957725541,1.179101965346628,0.8138041568059148,1.537776542584835,-0.01858498021614963,1.445325702946226,0.9265785561614919,1.674332483627056,0.6876038464727697,1.036712924543725,0.7557989089384721,1.340647707597431,0.8952056173798618,0.938097014270611,0.7611367429397742,1.07896131586343,0.8717579771748221,0.6657332217364,0.4408483767465878,0.8546526971236076,880,808.6813186813187,803.4432234432235,811.9047619047619,1348.608058608059,1623.003663003663,-0.234253,0.073547,1.071106,7.282410,8.837585,-6.803894,1,2,1,1,1,91.000000
2025-01-05 12:48:17.083,,,,,,,,,,,,,,,,,,,,,,,,,,,,,,,,,,,,,,,/muse/elements/blink
2025-01-05 12:48:17.262,0.1637672957725541,1.190849733636772,0.6967645993125059,1.476036893862572,-0.01858498021614963,1.450681592469127,0.8715060449024837,1.603129865183515,0.6876038464727697,1.036712924543725,0.7546959048823932,1.282155707230151,0.8952056173798618,0.9633676324026152,0.7438819965397311,1.039925621174266,0.8717579771748221,0.7091314879615175,0.398904300687549,0.661813220387357,931.978021978022,841.3186813186813,818.3516483516484,839.3040293040293,1082.673992673993,1328.461538461539,-0.296143,0.090027,1.045227,-8.104858,7.259979,-5.420685,1,2,1,1,1,91.000000
2025-01-05 12:48:17.598,,,,,,,,,,,,,,,,,,,,,,,,,,,,,,,,,,,,,,,/muse/elements/blink
2025-01-05 12:48:17.764,0.1637672957725541,1.136735558586338,0.8101084210158404,1.471359416273202,-0.01858498021614963,1.500909346984526,0.8336137739019835,1.64756214395617,0.6876038464727697,0.7632423172452494,0.6915201522782979,1.304003969302072,0.8952056173798618,0.9336270331614382,0.7398893473479805,1.057399211879302,0.8717579771748221,0.703378161641816,0.4293974578078403,0.6909873669175517,884.4322344322345,826.007326007326,828.021978021978,842.9304029304029,1348.608058608059,1624.212454212454,-0.374573,-0.000793,1.047729,12.030182,27.746429,1.622467,1,2,1,1,1,91.000000
2025-01-05 12:48:18.273,0.1637672957725541,1.116905346249055,0.8254860467771017,1.549849296039834,-0.01858498021614963,1.458738212599723,0.8186557775054575,1.60805600658262,0.6876038464727697,0.866905366457317,0.5597711554642378,1.289277790405599,0.8952056173798618,0.9629839724661927,0.653194961612258,1.048867566021149,0.8717579771748221,0.7550741540057502,0.3517029251647623,0.6686240348261492,709.1575091575091,776.8498168498169,797.3992673992674,775.2380952380953,1020.622710622711,1117.728937728938,-0.324890,0.056580,1.735168,-1.286011,-16.979828,8.493652,1,2,1,1,1,91.000000
2025-01-05 12:48:18.762,0.1637672957725541,1.108411860609313,0.8990050573302978,1.632350714286241,-0.01858498021614963,1.441837719482539,0.8819905031509044,1.575998200480048,0.6876038464727697,1.004643366145828,0.440995468322944,1.291417148689434,0.8952056173798618,0.9357340985634195,0.6039031144790933,1.062971826850335,0.8717579771748221,0.7298212058848004,0.3940458049981491,0.7032993016740527,850.989010989011,788.9377289377289,809.0842490842491,812.3076923076924,614.4688644688645,380.7692307692308,-0.455383,0.098083,1.759705,13.316193,-4.291687,-4.815063,1,2,1,1,1,91.000000
2025-01-05 12:48:19.262,0.1637672957725541,1.100002036637447,0.7934432630350825,1.6827345241226,-0.01858498021614963,1.387390265771712,0.8690168798473178,1.485200028241669,0.6876038464727697,1.05171659746819,0.4837575643090289,1.369396451264382,0.8952056173798618,1.017722871900342,0.5465085173182989,1.054847057657903,0.8717579771748221,0.7192741410603033,0.4781307200542912,0.7244665429367766,741.3919413919414,795.7875457875458,813.5164835164835,774.0293040293041,967.4358974358975,1060.915750915751,-0.310730,0.130493,1.038086,-1.091614,-0.112152,1.921539,1,2,1,1,1,91.000000
2025-01-05 12:48:19.766,0.1637672957725541,1.084803577162801,0.7487617156551887,1.620852491216056,-0.01858498021614963,1.346065791027985,0.8090274549582015,1.495212149499151,0.6876038464727697,1.059282462424932,0.4977807064690974,1.326802739343165,0.8952056173798618,0.9478959272547531,0.5511894146741878,1.11030101338742,0.8717579771748221,0.6275876831136898,0.5212026999989232,0.7295919518723868,649.92673992674,750.2564102564103,784.5054945054945,765.9706959706959,679.3406593406594,308.2417582417582,-0.348816,0.101929,1.317505,10.101166,2.041168,1.271057,1,2,1,1,1,91.000000
2025-01-05 12:48:20.038,,,,,,,,,,,,,,,,,,,,,,,,,,,,,,,,,,,,,,,/muse/elements/blink
2025-01-05 12:48:20.262,0.1637672957725541,1.141206839626595,0.7295921333398939,1.53654694446246,-0.01858498021614963,1.353098587264151,0.6929300376817518,1.50477643002311,0.6876038464727697,1.07637894177084,0.5841773235968538,1.332557719687836,0.8952056173798618,0.9245560681066418,0.5832159733924183,1.168836192750405,0.8717579771748221,0.689745162553749,0.5148499887118524,0.6644044731386936,822.7838827838829,782.893772893773,803.4432234432235,807.8754578754579,772.8205128205128,675.3113553113553,-0.277954,0.079102,1.664307,-2.325287,-18.699493,6.198273,1,2,1,1,1,91.000000
2025-01-05 12:48:20.761,0.1637672957725541,1.144419006984029,0.8614529631507727,1.539076497672898,-0.01858498021614963,1.32601724979073,0.7411269465700604,1.526783046634954,0.6876038464727697,0.9355416707380434,0.6309346392417937,1.180776093330877,0.8952056173798618,0.8197240170106227,0.5515192378009456,1.196655602479812,0.8717579771748221,0.7303909237150543,0.4332683683467474,0.6289490378335937,768.7912087912088,777.2527472527473,789.3406593406594,757.9120879120879,1106.446886446887,1322.820512820513,-0.352234,0.076233,1.075439,7.177734,0.859833,-8.291779,1,2,1,1,1,91.000000
2025-01-05 12:48:20.932,,,,,,,,,,,,,,,,,,,,,,,,,,,,,,,,,,,,,,,/muse/elements/blink
2025-01-05 12:48:21.262,0.1637672957725541,1.251031565703588,0.9183702522629682,1.577049124158141,-0.01858498021614963,1.413384911331241,0.7519398376679999,1.567420982690441,0.6876038464727697,0.9272513756801753,0.7587610482078161,1.372556776907443,0.8952056173798618,0.817458170945069,0.5761465163664558,1.155561182416613,0.8717579771748221,0.6698492446775902,0.5098593597772325,0.6623000344017559,710.3663003663004,783.2967032967033,804.6520146520147,767.1794871794872,962.6007326007326,1166.483516483516,-0.307373,0.078125,1.063904,-1.884155,1.099091,2.429962,1,2,1,1,1,91.000000
2025-01-05 12:48:21.763,0.1637672957725541,1.235080111412118,1.002278439816059,1.583178983867592,-0.01858498021614963,1.440751197799086,0.8208107633024345,1.637403385573309,0.6876038464727697,0.895854014319834,0.7586979504592584,1.378435824468524,0.8952056173798618,0.7593459153096028,0.6182319289265581,1.122604983522558,0.8717579771748221,0.6423439970435757,0.5097692781034525,0.6708982594759363,845.3479853479854,810.6959706959707,808.2783882783883,821.5750915750916,1213.223443223443,1610.512820512821,-0.315002,0.083618,1.688049,6.938477,-11.977844,-13.660126,1,2,1,1,1,91.000000
2025-01-05 12:48:21.936,,,,,,,,,,,,,,,,,,,,,,,,,,,,,,,,,,,,,,,/muse/elements/blink
2025-01-05 12:48:22.262,0.1637672957725541,1.207287733841431,0.8953646317916967,1.548863197912984,-0.01858498021614963,1.415449269887112,0.8609460871723704,1.630177541703168,0.6876038464727697,0.8546149788901534,0.8411375173890686,1.39785545927375,0.8952056173798618,0.7445995114526621,0.6475700972827233,1.011032004626315,0.8717579771748221,0.6375871120167552,0.4919079060288711,0.7377839368877328,803.8461538461539,801.8315018315019,801.025641025641,789.3406593406594,1134.652014652015,1398.571428571429,-0.328552,0.065979,1.051575,-2.930908,-2.325287,-0.074768,1,2,1,1,1,91.000000
2025-01-05 12:48:22.761,0.1637672957725541,1.152691297903256,0.9046180762865433,1.508209355154444,-0.01858498021614963,1.370513006582239,0.8979976655181005,1.543977828425357,0.6876038464727697,0.9237920745629981,0.8116072437962912,1.35118437974469,0.8952056173798618,0.7246571808864364,0.628241355961244,1.013817414606161,0.8717579771748221,0.6523890437578616,0.3368219697452987,0.919552066330403,690.6227106227107,779.2673992673992,783.2967032967033,764.7619047619048,649.5238095238095,446.043956043956,-0.331787,0.040222,1.042969,11.693726,6.168365,2.033691,1,2,1,1,1,91.000000
2025-01-05 12:48:22.974,,,,,,,,,,,,,,,,,,,,,,,,,,,,,,,,,,,,,,,/muse/elements/blink
2025-01-05 12:48:23.262,0.1637672957725541,1.080891912918125,0.7680068378998542,1.440487921508264,-0.01858498021614963,1.296299177781852,0.8999435500047852,1.508088452496565,0.6876038464727697,0.8203065946881385,0.7057960943628202,1.351768433888692,0.8952056173798618,0.7353746184370566,0.5329371084796328,1.053839639307503,0.8717579771748221,0.5536304478851746,0.2442825760309742,0.9719600334094867,736.5567765567765,795.3846153846154,782.4908424908425,769.1941391941392,1061.721611721612,1274.065934065934,-0.238464,0.080688,0.920898,-1.218719,6.295471,4.732819,1,2,1,1,1,91.000000
2025-01-05 12:48:23.764,0.1637672957725541,1.056361266415292,0.8312351167957398,1.456424017471006,-0.01858498021614963,1.338641992840003,0.8836949203443468,1.580246719755702,0.6876038464727697,0.8409264904330854,0.667562214246068,1.251091083707699,0.8952056173798618,0.7140809457549997,0.5013562637583054,1.128128901812997,0.8717579771748221,0.5066580887691617,0.1400597994783437,0.9373557954890859,771.6117216117216,791.3553113553114,794.5787545787546,799.0109890109891,544.3589743589744,119.6703296703297,-0.245850,0.056824,1.301086,8.381500,5.166473,-8.882446,1,2,1,1,1,91.000000
2025-01-05 12:48:24.262,0.1637672957725541,1.091998623851357,0.7661257582910123,1.468846004889677,-0.01858498021614963,1.327811820092075,0.7987701300910479,1.558903268242976,0.6876038464727697,0.9081359474951017,0.6238561213743353,1.348054467725404,0.8952056173798618,0.7792470582022114,0.3731322603326949,1.183337708729606,0.8717579771748221,0.5566311178824165,0.1603856776413086,0.9104204105246527,725.6776556776557,787.3260073260074,790.5494505494506,762.7472527472528,777.2527472527473,653.956043956044,-0.325317,-0.039734,1.427124,2.093506,-12.904968,8.374023,1,2,1,1,1,91.000000
2025-01-05 12:48:24.761,0.1637672957725541,1.088555501232428,0.7380499743790648,1.500402544403383,-0.01858498021614963,1.32428194326036,0.7189785503750501,1.577770139136075,0.6876038464727697,0.9866504681859923,0.5847989485596317,1.262652434135317,0.8952056173798618,0.752947824022585,0.3973306996013835,1.276503919773403,0.8717579771748221,0.6028517938026414,0.2119233240211649,0.8916358572546067,817.1428571428571,774.4322344322345,789.3406593406594,758.7179487179487,761.941391941392,437.1794871794872,-0.218628,0.106384,1.248657,13.577881,2.100983,-1.173859,1,2,1,1,1,91.000000
2025-01-05 12:48:24.901,,,,,,,,,,,,,,,,,,,,,,,,,,,,,,,,,,,,,,,/muse/elements/blink
2025-01-05 12:48:25.266,0.1637672957725541,1.07183985320198,0.6937689429430489,1.491226947060439,-0.01858498021614963,1.278310717389484,0.6608342990595749,1.532668270362283,0.6876038464727697,1.043264646103697,0.6316894191612057,1.280150983443318,0.8952056173798618,0.7216751906851817,0.3611506680399841,1.285227961829898,0.8717579771748221,0.6952070871525662,0.2001684472890453,0.9422549163309313,725.6776556776557,793.3699633699634,780.8791208791209,759.92673992674,941.2454212454213,1063.333333333333,-0.109619,-0.067688,0.938171,-17.301331,-6.893616,11.731110,1,2,1,1,1,91.000000
2025-01-05 12:48:25.762,0.1637672957725541,1.026966093402796,0.769566896798877,1.459682223892865,-0.01858498021614963,1.250772015700474,0.7723480702824462,1.491703999385308,0.6876038464727697,1.051031422730063,0.6605053058770973,1.305630230792194,0.8952056173798618,0.7178935253306442,0.2811685970713902,1.212462152596488,0.8717579771748221,0.7177558176954909,0.1011954882440251,0.9797131479393354,871.941391941392,832.8571428571429,813.919413919414,816.7399267399268,857.8388278388279,1055.677655677656,-0.137329,0.271545,0.943481,5.772095,-8.837585,0.620575,1,2,1,1,1,91.000000
2025-01-05 12:48:25.928,,,,,,,,,,,,,,,,,,,,,,,,,,,,,,,,,,,,,,,/muse/elements/blink
2025-01-05 12:48:26.262,0.1637672957725541,1.032322298972164,0.8020248901843298,1.417355655338186,-0.01858498021614963,1.271289093879993,0.8231608296591496,1.450785184539049,0.6876038464727697,1.066989389260689,0.6084983381907071,1.310140526574208,0.8952056173798618,0.8099883373343224,0.2608044502578425,1.131472591220771,0.8717579771748221,0.7193251821216442,0.0319143962291293,0.8694155751563429,798.2051282051282,786.5201465201466,799.4139194139194,774.0293040293041,951.3186813186813,1194.285714285714,-0.107239,-0.066589,0.958374,-13.390961,-2.863617,-0.037384,1,2,1,1,1,91.000000
2025-01-05 12:48:26.410,,,,,,,,,,,,,,,,,,,,,,,,,,,,,,,,,,,,,,,/muse/elements/blink
2025-01-05 12:48:26.765,0.1637672957725541,0.9646533946763445,0.8042534817954591,1.425288636472536,-0.01858498021614963,1.292262601767647,0.8954185147949915,1.492846027678876,0.6876038464727697,1.064925507132542,0.7012841993730368,1.414701447798925,0.8952056173798618,0.8390477833346712,0.2710716263551841,1.137368614202885,0.8717579771748221,0.6456102864227455,0.2952766437557919,0.7549549842553244,757.1062271062272,781.6849816849817,809.4871794871796,781.2820512820513,841.7216117216118,789.7435897435897,-0.074341,0.310974,1.135620,6.116028,-9.944153,-13.876953,1,2,1,1,1,91.000000
2025-01-05 12:48:27.261,0.1637672957725541,0.9768060887161891,0.7211510288137202,1.443371062746525,-0.01858498021614963,1.338947218690617,0.8695102372496479,1.512739463747414,0.6876038464727697,1.051046922094532,0.7235893007408178,1.410802015239673,0.8952056173798618,0.7586165873241032,0.4309694444447644,1.201123688442978,0.8717579771748221,0.5996713145744142,0.4742731249014031,0.6299623052741538,780.0732600732601,804.6520146520147,782.893772893773,788.5347985347986,1093.150183150183,1366.336996336996,-0.018677,-0.096191,1.014954,2.355194,-10.452576,16.172333,1,2,1,1,1,91.000000
2025-01-05 12:48:27.762,0.1637672957725541,0.9512096992558036,0.6618567725705257,1.446224110318715,-0.01858498021614963,1.369787891529863,0.8143723714615785,1.510589421486135,0.6876038464727697,1.033974563286687,0.7693976592842546,1.570980683235329,0.8952056173798618,0.6920469639428025,0.6122160352460122,1.30136017437653,0.8717579771748221,0.5720188149965055,0.5242047091341495,0.6393476574505734,792.1611721611722,797.8021978021978,813.1135531135532,774.8351648351648,859.8534798534798,892.0879120879121,-0.063049,0.275452,1.141296,5.884247,-8.433838,-7.222595,1,2,1,1,1,91.000000
2025-01-05 12:48:28.262,0.1637672957725541,1.090562404420944,0.6656783922115956,1.479589650418751,-0.01858498021614963,1.427255327598698,0.7685962117829888,1.497263995783638,0.6876038464727697,1.146102967365671,0.7596670720193703,1.580058376117822,0.8952056173798618,0.865107886032891,0.706667295600746,1.337640785829782,0.8717579771748221,0.5700761753841814,0.4724545477591693,0.7487617374433119,770,829.6336996336996,788.1318681318681,789.3406593406594,1014.175824175824,1336.520146520146,-0.070374,-0.123108,1.136353,-1.196289,-12.695618,8.127289,1,2,1,1,1,91.000000
2025-01-05 12:48:28.770,0.1637672957725541,1.105789852764242,0.7367383572420573,1.499997957025471,-0.01858498021614963,1.442518443988064,0.6894030935552148,1.379167760237826,0.6876038464727697,1.146800735576786,0.8019595026718394,1.580058376117822,0.8952056173798618,0.9786992111796222,0.7257230832359675,1.221904084887084,0.8717579771748221,0.5616591281222113,0.4366178462724659,0.7897475002216271,722.4542124542124,794.981684981685,815.934065934066,796.1904761904763,584.2490842490843,349.3406593406593,-0.084167,0.168823,0.896606,-3.439331,-6.302948,-15.080719,1,2,1,1,1,91.000000
2025-01-05 12:48:29.262,0.1637672957725541,1.172505114003229,0.798516233522638,1.500870235936961,-0.01858498021614963,1.459918541793132,0.6450783444050779,1.309432513158458,0.6876038464727697,1.146800735576786,0.7917365607919696,1.559044672213471,0.8952056173798618,1.085740348491394,0.6823213318418878,1.12704244731091,0.8717579771748221,0.5747258705161986,0.4789564787923952,0.7665920614514307,722.8571428571429,807.0695970695971,786.5201465201466,780.0732600732601,1064.945054945055,1259.96336996337,-0.030029,-0.074951,0.888123,2.048645,-2.512207,15.110626,1,2,1,1,1,91.000000
2025-01-05 12:48:29.771,0.1637672957725541,0.9737963902440974,0.7954599343933354,1.42919403761586,-0.01858498021614963,1.282506755607901,0.5723195146022846,1.124757504858566,0.6876038464727697,1.114171455913479,0.8559491071555879,1.431374174974721,0.8952056173798618,0.9912567443927329,0.5716218554489504,0.9546036691605775,0.8717579771748221,0.6014980516085853,0.4343830694574434,0.7772881044486821,757.5091575091575,786.1172161172161,791.7582417582418,782.893772893773,592.3076923076924,335.2380952380952,-0.110535,0.157471,0.767456,-18.063965,-0.927124,-17.331238,1,2,1,1,1,91.000000
2025-01-05 12:48:29.786,,,,,,,,,,,,,,,,,,,,,,,,,,,,,,,,,,,,,,,/muse/elements/blink
2025-01-05 12:48:30.262,0.1637672957725541,0.8796200060309628,0.7507620155833115,1.328464875038903,-0.01858498021614963,1.284291038037073,0.5413845790929922,1.18437240034053,0.6876038464727697,0.9066626436733856,0.8443348017811688,1.433967408889219,0.8952056173798618,0.7752976801209021,0.4756619905546455,1.081757325000511,0.8717579771748221,0.466729599697948,0.3383261066177869,0.7480800953381243,782.893772893773,778.0586080586081,794.981684981685,790.952380952381,870.7326007326008,821.978021978022,-0.059814,-0.013611,0.845947,7.656250,-7.753448,14.594727,1,1,1,1,1,91.000000
2025-01-05 12:48:30.762,0.1637672957725541,0.9148698263560249,0.6562628964231825,1.251606746987626,-0.01858498021614963,1.233992009872556,0.5756035943169125,1.284289788985782,0.6876038464727697,0.9470754038296367,0.7071308046056662,1.539674589944681,0.8952056173798618,0.721207130758005,0.4084556670347729,1.096324613548221,0.8717579771748221,0.4511950737198215,0.2507170704745175,0.7230566840640412,788.9377289377289,794.5787545787546,805.8608058608058,792.1611721611722,934.7985347985348,973.8827838827839,-0.047546,0.265137,0.936462,-1.031799,-11.805878,-21.712646,1,2,1,1,1,91.000000
2025-01-05 12:48:31.262,0.1637672957725541,0.9599964958021887,0.6853046115260453,1.308550749906827,-0.01858498021614963,1.211372526045908,0.6439975829269096,1.421128407955364,0.6876038464727697,0.8877197448397991,0.6752746479011794,1.561667579706133,0.8952056173798618,0.7172415687896144,0.5174744197888553,1.161123438482921,0.8717579771748221,0.4351953337099964,0.2899272369497236,0.6480526827950592,754.2857142857143,803.8461538461539,796.1904761904763,786.9230769230769,938.4249084249085,1031.501831501831,-0.053772,-0.079468,0.946350,0.306549,-9.637604,11.185303,1,2,1,1,1,91.000000
2025-01-05 12:48:31.762,0.1637672957725541,0.9477352135603739,0.6682919775365087,1.347316186835488,-0.01858498021614963,1.108562711508552,0.620591279083557,1.399806041055171,0.6876038464727697,1.036662518955148,0.5596558259534158,1.545526872699204,0.8952056173798618,0.7293908514860898,0.5713120831166867,1.170731452164053,0.8717579771748221,0.5600547895138169,0.3204512040595393,0.6375854897277493,736.5567765567765,808.2783882783883,799.4139194139194,778.8644688644689,653.1501831501831,301.7948717948718,-0.087708,0.197876,0.879578,-10.422668,-10.003967,-18.751831,1,2,1,1,1,91.000000
2025-01-05 12:48:32.266,0.1637672957725541,1.010295358673487,0.7306478549345352,1.429593714741082,-0.01858498021614963,1.150238652749148,0.7182487304132595,1.483030396778782,0.6876038464727697,1.197079342936006,0.618485284633905,1.419034435071021,0.8952056173798618,0.8587488310404968,0.6273562129436681,1.214290543171744,0.8717579771748221,0.5972176493132783,0.3063521827649947,0.6126390821836459,770.8058608058608,803.4432234432235,798.6080586080586,817.5457875457876,729.7069597069598,654.7619047619048,-0.023193,-0.086243,0.886658,5.428162,-5.031891,10.632019,1,2,1,1,1,91.000000
2025-01-05 12:48:32.762,0.1637672957725541,1.022939945207147,0.6975339664079788,1.46075418896024,-0.01858498021614963,1.164864213883951,0.6653226983572182,1.403022476829623,0.6876038464727697,1.172281770288201,0.5968848480518192,1.337448724055077,0.8952056173798618,0.9916273144724748,0.5982927480023472,1.203009671420386,0.8717579771748221,0.6421105707297273,0.269712618378075,0.6233577084397083,746.2271062271062,775.2380952380953,805.0549450549451,793.3699633699634,635.0183150183151,389.2307692307692,-0.098755,0.214783,0.825623,-2.654266,2.743988,-19.821014,1,2,1,1,1,91.000000
2025-01-05 12:48:33.262,0.1637672957725541,1.10557101776604,0.7950600406528793,1.507201496401682,-0.01858498021614963,1.224718387838557,0.7598855091287697,1.444733579548909,0.6876038464727697,1.167779428062006,0.597904987833078,1.309770456580323,0.8952056173798618,1.061834189590457,0.5469883897624702,1.169350332605386,0.8717579771748221,0.6121642592937928,0.2532188845481898,0.5557473981016724,763.956043956044,799.8168498168499,799.8168498168499,826.4102564102565,822.7838827838829,720.8424908424909,0.014526,-0.067688,0.898499,13.488159,7.304840,24.830475,1,2,1,1,1,91.000000
2025-01-05 12:48:33.766,0.1637672957725541,1.078580182267583,0.9448328144319714,1.499248184082742,-0.01858498021614963,1.195459738993189,0.8319394114405572,1.284832328456341,0.6876038464727697,1.072657960200968,0.7299067388399237,1.266592437275667,0.8952056173798618,1.139336029751282,0.4494081024188147,1.149246854979586,0.8717579771748221,0.6691742083386419,0.1329654420329171,0.619150257018991,813.1135531135532,790.952380952381,794.981684981685,782.4908424908425,624.1391941391942,419.4505494505495,-0.097107,0.113403,0.701721,-18.893890,5.196381,-22.422943,1,2,1,1,1,91.000000
2025-01-05 12:48:34.225,,,,,,,,,,,,,,,,,,,,,,,,,,,,,,,,,,,,,,,/muse/elements/blink
2025-01-05 12:48:34.262,0.1637672957725541,1.078580182267583,0.9969840403918812,1.456062340160162,-0.01858498021614963,1.195459738993189,0.8784092580020555,1.160870657568876,0.6876038464727697,1.072657960200968,0.8957092646011936,1.185018643379767,0.8952056173798618,1.139336029751282,0.6082020485686073,1.158438503655448,0.8717579771748221,0.6691742083386419,0.224761809904919,0.5827266622617124,758.3150183150184,815.934065934066,799.0109890109891,798.2051282051282,684.981684981685,503.6630036630037,-0.095825,0.006531,0.727478,7.753448,4.134674,18.766785,1,2,1,1,1,91.000000
2025-01-05 12:48:34.762,0.1637672957725541,0.9056534719507839,0.8877675582468169,1.456062340160162,-0.01858498021614963,1.167188015539096,0.8120007527407841,1.160870657568876,0.6876038464727697,0.9540083875683264,0.8957092646011936,1.185018643379767,0.8952056173798618,0.8597257514165424,0.6140190088250985,1.158438503655448,0.8717579771748221,0.5306929320080582,0.2180732969117382,0.5827266622617124,743.8095238095239,784.5054945054945,779.2673992673992,727.6923076923077,362.2344322344322,4.432234432234432,-0.217102,0.055847,0.743774,-12.329254,9.271240,-18.041534,1,2,1,1,1,91.000000
2025-01-05 12:48:34.926,,,,,,,,,,,,,,,,,,,,,,,,,,,,,,,,,,,,,,,/muse/elements/blink
2025-01-05 12:48:35.263,0.1637672957725541,1.013673852341769,0.7276026236221249,1.456062340160162,-0.01858498021614963,1.18154892235683,0.6611312937618143,1.160870657568876,0.6876038464727697,1.129969335212584,0.8605666990315496,1.185018643379767,0.8952056173798618,0.811288126489662,0.7110469058677191,1.158438503655448,0.8717579771748221,0.4849022798095081,0.2927239479540796,0.5827266622617124,839.3040293040293,813.919413919414,805.0549450549451,818.3516483516484,578.2051282051282,217.985347985348,-0.128357,0.014587,0.798889,11.529236,0.112152,16.060181,1,2,1,1,1,91.000000
2025-01-05 12:48:35.649,,,,,,,,,,,,,,,,,,,,,,,,,,,,,,,,,,,,,,,/muse/elements/blink
2025-01-05 12:48:35.762,0.1637672957725541,1.016417331675586,0.6328551415785746,1.456062340160162,-0.01858498021614963,1.172061175891532,0.6423287022194545,1.160870657568876,0.6876038464727697,1.135417806722671,0.6929012426421506,1.185018643379767,0.8952056173798618,0.8034093018614346,0.6276255803166415,1.158438503655448,0.8717579771748221,0.4681623282479184,0.3043321305937664,0.5827266622617124,788.5347985347986,802.6373626373627,806.2637362637363,804.6520146520147,387.6190476190476,0,-0.145325,0.091919,0.780396,-12.815247,1.659851,-14.512482,1,2,1,1,2,91.000000
2025-01-05 12:48:35.866,,,,,,,,,,,,,,,,,,,,,,,,,,,,,,,,,,,,,,,/muse/elements/blink
2025-01-05 12:48:36.262,0.1637672957725541,1.120401130947134,0.6056611367734992,1.456062340160162,-0.01858498021614963,1.199139505830705,0.7389929484258636,1.160870657568876,0.6876038464727697,1.062833344985065,0.8287546809458417,1.185018643379767,0.8952056173798618,0.7506887885663169,0.5985192293869545,1.158438503655448,0.8717579771748221,0.3911426008094644,0.3130820460701891,0.5827266622617124,810.6959706959707,804.2490842490843,814.3223443223443,792.967032967033,566.9230769230769,393.2600732600733,-0.149658,0.051453,0.728333,12.613373,5.846863,18.108826,1,2,1,1,2,91.000000
2025-01-05 12:48:36.765,0.1637672957725541,1.10622517144948,0.5940407015471809,1.456062340160162,-0.01858498021614963,1.196809485920005,0.7525093591673792,1.160870657568876,0.6876038464727697,1.002416871102331,0.8333854030608069,1.185018643379767,0.8952056173798618,0.706822206766734,0.4650620701913981,1.158438503655448,0.8717579771748221,0.336775200904837,0.2535940277696669,0.5827266622617124,833.2600732600733,817.5457875457876,801.025641025641,811.5018315018315,548.3882783882784,271.1721611721612,-0.189148,0.062073,0.809998,-7.312317,-3.678589,-13.218994,1,2,1,1,2,91.000000
2025-01-05 12:48:37.262,0.1637672957725541,1.139005994282805,0.6682251966751112,1.456062340160162,-0.01858498021614963,1.230694492023492,0.7981904655612643,1.160870657568876,0.6876038464727697,0.8590192088780337,0.8739322659158293,1.185018643379767,0.8952056173798618,0.6397456112650657,0.4549421827174242,1.158438503655448,0.8717579771748221,0.3396167178266964,0.2238260140751729,0.5827266622617124,788.5347985347986,794.981684981685,792.5641025641025,822.3809523809524,612.0512820512821,189.3772893772894,-0.186340,0.052063,0.796082,11.357269,5.368347,12.620850,1,2,1,1,2,91.000000
2025-01-05 12:48:37.619,,,,,,,,,,,,,,,,,,,,,,,,,,,,,,,,,,,,,,,/muse/elements/blink
2025-01-05 12:48:37.761,0.1637672957725541,1.078720190036992,0.6900394136796241,1.456062340160162,-0.01858498021614963,1.172874786589573,0.711473984829929,1.160870657568876,0.6876038464727697,0.8647103727945897,0.788577294295992,1.185018643379767,0.8952056173798618,0.5941130133398512,0.5064260239622095,1.158438503655448,0.8717579771748221,0.447475122156875,0.2762540941724661,0.5827266622617124,817.1428571428571,793.7728937728938,806.6666666666667,821.5750915750916,416.2271062271062,187.3626373626374,-0.181763,0.077759,0.776855,-12.553558,-1.143951,-18.303223,1,2,1,1,2,91.000000
2025-01-05 12:48:38.262,0.1637672957725541,1.09590656183969,0.7780387006916311,1.456062340160162,-0.01858498021614963,1.159861719155225,0.7340776235495475,1.160870657568876,0.6876038464727697,0.8382216638266521,0.7002737397890871,1.185018643379767,0.8952056173798618,0.5522410733637804,0.61589259636573,1.158438503655448,0.8717579771748221,0.5315425846309518,0.4327782840662714,0.5827266622617124,773.2234432234433,790.952380952381,794.1758241758242,805.4578754578755,610.4395604395604,291.7216117216117,-0.122131,0.015808,0.755615,12.531128,2.676697,19.125671,1,2,1,1,2,91.000000
2025-01-05 12:48:38.762,0.1637672957725541,1.113700387145207,0.7370016599092971,1.456062340160162,-0.01858498021614963,1.123156322018232,0.6506355481623376,1.160870657568876,0.6876038464727697,0.8711117700733467,0.5975219853170506,1.185018643379767,0.8952056173798618,0.697053622642044,0.6240345360783042,1.158438503655448,0.8717579771748221,0.4964560921132911,0.4614745853056336,0.5827266622617124,771.2087912087912,796.1904761904763,790.1465201465202,778.8644688644689,537.1062271062272,143.4432234432234,-0.201904,0.056213,0.752930,-11.835785,4.800110,-16.740570,1,2,1,1,2,91.000000
2025-01-05 12:48:39.262,0.1637672957725541,1.155366841392842,0.7955433531528272,1.546775397838271,-0.01858498021614963,1.253347017151095,0.7388829427899113,1.544974883750508,0.6876038464727697,0.8772569460194888,0.5728260554477539,1.245038186453455,0.8952056173798618,0.7332654293106895,0.5792760804890534,1.128074909628562,0.8717579771748221,0.35280571548216,0.3746209348109861,0.8365145421221558,787.7289377289378,803.4432234432235,801.025641025641,812.7106227106227,563.2967032967033,200.2564102564102,-0.148376,0.034607,0.768799,10.310516,6.684265,8.979645,1,2,1,1,1,91.000000
2025-01-05 12:48:39.772,0.1637672957725541,1.175886018208758,0.7120054443693075,1.483876877223974,-0.01858498021614963,1.217370225828191,0.7946586143352177,1.498190881079463,0.6876038464727697,0.9205826690118198,0.5075686772062865,1.334557417762252,0.8952056173798618,0.7426056993183158,0.3938790515710097,1.084574145711863,0.8717579771748221,0.3259089568267846,0.1706736530440944,0.8024701079727883,818.3516483516484,796.1904761904763,795.3846153846154,806.6666666666667,538.7179487179487,176.8864468864469,-0.208191,0.043274,0.805359,-11.581573,-1.682281,-10.796509,1,2,1,1,1,91.000000
2025-01-05 12:48:40.262,0.1637672957725541,1.208972254775254,0.8369166725405387,1.425868111136979,-0.01858498021614963,1.270919982914981,0.8007047919271526,1.445778630793439,0.6876038464727697,0.8713647771315279,0.6986429548921962,1.397008351189499,0.8952056173798618,0.7097134999181998,0.3759744178476241,1.145064811876485,0.8717579771748221,0.1804494325967755,0.0184308995065949,0.7377701800978214,745.0183150183151,814.7252747252747,789.7435897435897,779.6703296703297,767.5824175824176,566.1172161172161,-0.180054,0.023132,0.719177,11.013336,6.519775,13.211517,1,2,1,1,1,91.000000
2025-01-05 12:48:40.744,,,,,,,,,,,,,,,,,,,,,,,,,,,,,,,,,,,,,,,/muse/elements/blink
2025-01-05 12:48:40.762,0.1637672957725541,1.177015674709927,0.7679358628268895,1.341249649634549,-0.01858498021614963,1.187349163219612,0.6723712864168851,1.339846437491537,0.6876038464727697,0.9277709761734508,0.6961681712001119,1.393866807659208,0.8952056173798618,0.7605178996468912,0.4393887359782066,1.082038237249691,0.8717579771748221,0.6620760294194569,0.05900584882933722,0.5863541891860655,795.7875457875458,800.6227106227107,807.4725274725275,809.0842490842491,562.4908424908425,263.5164835164835,-0.161316,0.105896,0.734070,-13.136749,5.667419,-19.671478,1,2,1,1,1,91.000000
2025-01-05 12:48:41.269,0.1637672957725541,1.109193256702055,0.7263283706220955,1.366201021615928,-0.01858498021614963,1.241536748176628,0.5754360855811735,1.389970077577453,0.6876038464727697,0.9396452146004178,0.7271924570208679,1.284737770673241,0.8952056173798618,0.7247969089665562,0.5274590881631788,1.16505987785139,0.8717579771748221,0.7295286489017367,0.2261245079672529,0.447061859381808,845.3479853479854,816.7399267399268,814.7252747252747,828.021978021978,556.4468864468864,239.7435897435898,-0.203247,0.030518,0.804565,5.996399,7.252502,10.886230,1,1,1,1,1,91.000000
2025-01-05 12:48:41.762,0.1637672957725541,1.132938243844871,0.5203396811470962,1.448234630035224,-0.01858498021614963,1.298812044387771,0.6033618727977365,1.461646569848465,0.6876038464727697,1.204893241126645,0.752540814654294,1.318687353007274,0.8952056173798618,0.8089240764089921,0.5724017461439441,1.083518903480216,0.8717579771748221,0.6414211862827167,0.321180163788806,0.6958721716243982,799.0109890109891,786.9230769230769,797.3992673992674,802.6373626373627,444.0293040293041,2.820512820512821,-0.193420,0.065735,0.829773,-9.061890,-0.269165,-23.305206,1,2,1,1,1,91.000000
2025-01-05 12:48:42.262,0.1637672957725541,1.147871468967929,0.6610274223182411,1.506356021644282,-0.01858498021614963,1.331682183811564,0.7749027642466429,1.570452107806358,0.6876038464727697,1.201911127121331,0.8347365420363719,1.427671901808599,0.8952056173798618,0.9319650946158787,0.6208623696839916,1.180123149201249,0.8717579771748221,0.5916528577378737,0.389505167647164,0.7984967977993611,844.9450549450549,808.6813186813187,806.2637362637363,805.4578754578755,583.4432234432235,335.6410256410256,-0.214844,0.032837,0.842957,8.097382,-0.441132,-3.693542,1,2,1,1,1,91.000000
2025-01-05 12:48:42.573,,,,,,,,,,,,,,,,,,,,,,,,,,,,,,,,,,,,,,,/muse/elements/blink
2025-01-05 12:48:42.776,0.1637672957725541,1.110859933557475,0.7202750341139882,1.476282877342147,-0.01858498021614963,1.34790541648602,0.8087835574138589,1.549922711052266,0.6876038464727697,1.201911127121331,0.8835428067527111,1.427671901808599,0.8952056173798618,0.989150235311506,0.5954024490681225,1.140671217280347,0.8717579771748221,0.5799570965104863,0.3269731987602349,0.8410834747829948,880.4029304029305,801.4285714285714,817.948717948718,829.2307692307693,986.3736263736264,1137.472527472527,-0.205017,0.035706,0.823120,-5.600128,3.229980,-5.203857,1,2,1,1,1,91.000000
2025-01-05 12:48:43.262,0.1637672957725541,1.106656625250102,0.7750284613387852,1.490612027297206,-0.01858498021614963,1.346395733890498,0.870625911792533,1.598569896030275,0.6876038464727697,1.066872846731153,0.9184411024127991,1.431460062720391,0.8952056173798618,1.018062484198883,0.6209024438605959,1.200285179638345,0.8717579771748221,0.6235482055436306,0.3143576879867601,0.7361842183189221,829.2307692307693,813.5164835164835,793.7728937728938,815.5311355311355,675.7142857142858,679.3406593406594,-0.208618,-0.073547,0.945435,5.046844,2.788849,6.616974,1,1,1,1,1,91.000000
2025-01-05 12:48:43.554,,,,,,,,,,,,,,,,,,,,,,,,,,,,,,,,,,,,,,,/muse/elements/blink
2025-01-05 12:48:43.775,0.1637672957725541,1.037257181508136,0.692585932850823,1.417493731965308,-0.01858498021614963,1.254125083285731,0.7506366467108958,1.511699416606967,0.6876038464727697,0.9968410409837303,0.8087513203499008,1.28253819127461,0.8952056173798618,0.9193041818923889,0.6599456551692361,1.138414138803535,0.8717579771748221,0.693112712947533,0.3401448730043252,0.6504200929348515,885.6410256410256,828.021978021978,805.4578754578755,827.6190476190476,758.3150183150184,636.6300366300367,-0.215454,0.045898,0.871887,-8.658142,-0.717773,2.699127,1,2,1,1,1,91.000000
2025-01-05 12:48:44.262,0.1637672957725541,1.089015777997726,0.6608953389859797,1.479389668300519,-0.01858498021614963,1.270027121987729,0.7138364556290323,1.58996454174009,0.6876038464727697,1.070459439692893,0.857468704564931,1.264297258937086,0.8952056173798618,0.9564417286012989,0.6794973212637083,1.148966419142922,0.8717579771748221,0.7049645703104386,0.3827788271184458,0.6440811658521829,863.0769230769231,834.4688644688645,812.7106227106227,828.4249084249085,887.2527472527473,881.6117216117217,-0.179138,-0.000305,0.811584,7.043152,3.970184,5.293579,1,2,1,1,1,91.000000
2025-01-05 12:48:44.762,0.1637672957725541,1.083168153741323,0.6554286971738612,1.445686669241877,-0.01858498021614963,1.197032783147713,0.6190943843232201,1.489329885505479,0.6876038464727697,1.00226906069398,0.7239519401399398,1.258067975386571,0.8952056173798618,1.051600127883962,0.662057287048865,1.217487220652914,0.8717579771748221,0.8234348457529297,0.4305367766046863,0.7861121767714182,749.047619047619,805.8608058608058,795.3846153846154,777.6556776556777,251.025641025641,0,-0.078186,0.074646,0.767639,-10.011444,-7.529144,-16.561127,1,2,1,1,1,91.000000
2025-01-05 12:48:45.190,,,,,,,,,,,,,,,,,,,,,,,,,,,,,,,,,,,,,,,/muse/elements/blink
2025-01-05 12:48:45.270,0.1637672957725541,1.085307758486174,0.8379751624791694,1.530912114593018,-0.01858498021614963,1.280902673174014,0.7798074317018435,1.580704015909939,0.6876038464727697,1.099151348422395,0.7645106604041544,1.27771249327311,0.8952056173798618,1.132973173855552,0.6091170802648577,1.251978267011152,0.8717579771748221,0.7899936860119636,0.335810653640143,0.8148374375454263,849.7802197802198,780.0732600732601,794.1758241758242,814.3223443223443,184.5421245421246,0,-0.057190,0.044373,1.207092,3.215027,2.572021,-20.254669,1,2,1,1,1,91.000000
2025-01-05 12:48:45.764,0.1637672957725541,0.9916177885470707,0.8467714809480023,1.510831773897554,-0.01858498021614963,1.255318043408182,0.8571551223911597,1.542830591401399,0.6876038464727697,1.248104345908427,0.771892113152017,1.420626059826576,0.8952056173798618,1.17588425337615,0.7129708117899566,1.251976270033939,0.8717579771748221,0.7596740622661341,0.3871135251897627,0.940144760401034,796.1904761904763,794.5787545787546,807.8754578754579,813.1135531135532,865.4945054945056,1129.010989010989,-0.158875,0.052917,0.992065,0.912170,-1.757050,7.185211,1,2,1,1,1,91.000000
2025-01-05 12:48:46.262,0.1637672957725541,0.9695202612222772,0.8522088988334381,1.416403482648041,-0.01858498021614963,1.269988157921197,0.8677354395910436,1.497534860208073,0.6876038464727697,1.264794508792487,0.760323391208355,1.403654551262049,0.8952056173798618,1.072329666308982,0.7567832022385533,1.182519329571266,0.8717579771748221,0.5777134734311975,0.4067253933368761,1.065198693769426,811.0989010989011,815.934065934066,822.3809523809524,811.5018315018315,875.9706959706959,867.9120879120879,-0.138000,0.069153,0.996277,1.899109,-2.078552,5.271149,1,1,1,1,1,91.000000
2025-01-05 12:48:46.762,0.1637672957725541,0.8123430374161341,0.5657222749188962,1.097465696170991,-0.01858498021614963,1.050959960464436,0.666862001094373,1.233081691018278,0.6876038464727697,1.264794508792487,0.6784695816484541,1.355296784018353,0.8952056173798618,1.039040684169729,0.7983955195377621,1.109468281627688,0.8717579771748221,0.5277207217905598,0.486643058359322,1.139429507873497,820.7692307692308,797.8021978021978,813.5164835164835,795.3846153846154,854.2124542124542,827.2161172161173,-0.185852,0.061584,0.989258,1.757050,1.674805,2.033691,1,1,1,1,1,91.000000
2025-01-05 12:48:47.263,1.177970252979261,0.6882457160985831,0.3614251605981434,0.7776830156978126,0.6548797227217216,0.6603611529909292,0.3397379644895837,0.9123886193186712,0.5850524368873925,0.7330634686191566,0.4731819984695662,1.163861920810394,1.112660265569047,0.8288229359294107,0.7411770443392852,1.075612333043599,0.692500423694317,0.6549431494586212,0.4809024625875275,1.141346682333135,782.0879120879121,805.8608058608058,813.1135531135532,793.7728937728938,731.3186813186813,566.5201465201466,-0.170898,0.079163,0.991089,-0.381317,-1.345825,-0.777588,1,1,1,1,1,91.000000
2025-01-05 12:48:47.762,1.150014728227638,0.1854827299861161,-0.09918104911963851,0.8144011300044423,0.625658030771968,0.203120750708312,-0.1258182045634056,0.451552386884061,0.7325484066801946,0.6085332605172603,0.4281259083269014,0.8732163362628079,1.058401842263227,0.8561255978402472,0.6579410149150993,0.9657147016305091,0.67546178676222,0.6372721109619056,0.5050299330651488,0.9953171947270038,815.1282051282052,816.7399267399268,815.934065934066,788.9377289377289,740.989010989011,699.4871794871796,-0.174316,0.069946,0.981079,0.254211,-3.768311,-2.310333,1,1,1,1,1,91.000000
2025-01-05 12:48:48.265,1.112350288901116,0.09053381383839125,-0.01692064448098454,1.064809535108493,0.6040725944336546,0.2059376716023457,0.0003515926761056782,0.5226115157344589,0.7637490468619439,0.7105244282891841,0.4807910123150176,0.7458460927401099,1.091513873480802,0.8718829874250011,0.5498114400339622,0.9059626034275351,0.6343265327956256,0.6683837559069797,0.5208668874553751,0.8381641782809895,816.7399267399268,806.2637362637363,796.996336996337,794.1758241758242,855.4212454212454,799.4139194139194,-0.153503,0.060425,0.991333,1.360779,-0.411224,1.727142,1,1,1,1,1,91.000000
2025-01-05 12:48:48.777,1.066057018748207,0.06853074900305883,0.1370304610730333,1.159581892618744,0.7341307262551503,0.2225468993135631,0.0497583310927916,0.9319451718330857,1.058900357801473,0.7102920899444266,0.4568326537038657,1.188119165856477,1.093426707987182,0.9021883391092376,0.4411366390998092,0.9407093233754048,0.6608972512784252,0.6767026843140739,0.4923922462324061,0.6649431000087841,795.7875457875458,806.6666666666667,812.7106227106227,812.7106227106227,792.1611721611722,741.3919413919414,-0.194397,0.064209,0.979309,-1.143951,0.770111,-0.373840,1,1,1,1,1,91.000000
2025-01-05 12:48:49.262,0.8888537700349427,0.07423669770713849,0.1837221768719986,0.9616567218035964,0.7852909553745088,0.009132237300689332,0.04314062509442982,0.9239428124095128,1.084633833229472,0.613608775193309,0.4727896394317471,1.188119165856477,1.107561912430335,0.9645168643235121,0.4317635711583577,0.8835746062172575,0.6749090451971691,0.7487266138031582,0.5062020269953139,0.6259398744867485,804.2490842490843,824.7985347985348,794.5787545787546,796.996336996337,874.3589743589744,812.7106227106227,-0.177307,0.054871,0.970276,1.091614,-1.039276,-2.377625,1,1,1,1,1,91.000000
2025-01-05 12:48:49.762,0.7672669381891331,0.1931615552765669,0.1808664344542045,0.7573251975511999,0.8030515245270274,0.206577893677083,0.08193924769765443,0.8270191173812654,1.067753361745536,0.5476500342178017,0.4932027293378705,1.174233352170193,1.078901048020869,0.8858566063185052,0.4233165302618988,0.853956442419802,0.8037488076193608,0.7731288275513796,0.4645854319648788,0.5894490615710553,843.3333333333334,791.7582417582418,808.2783882783883,800.6227106227107,882.4175824175825,825.2014652014652,-0.179688,0.063477,0.980042,1.099091,-2.108459,-19.641571,1,1,1,1,1,91.000000
2025-01-05 12:48:50.261,0.5314454465342205,0.398797791568877,0.07442139838525914,0.1629183721127078,0.5560935909099467,0.3491189509693914,0.01304876409958232,0.4928457269472274,0.9995269457764595,0.5019372503125088,0.4874076943440618,1.002724516829677,1.126641723370275,0.9608417115818093,0.4856222001782138,0.711657757534326,0.830868275065878,0.7314388541542739,0.462412840991437,0.6132233720932971,780.4761904761905,808.2783882783883,819.96336996337,806.6666666666667,884.0293040293041,797.3992673992674,-0.203003,0.020081,0.928894,3.641205,-1.577606,-13.742371,1,1,1,1,1,91.000000
2025-01-05 12:48:50.765,0.4795827210549715,0.4396023192878624,0.1712188377956151,0.1987833603862137,0.2774646200403161,0.5121911981009302,-0.05093580545254726,0.3696268176552974,0.6220171669289769,0.7666315547045277,0.5701305326987082,0.8589560935814949,1.297788880300888,0.9505664863128126,0.5315605197202475,0.7271203930479399,1.09638318503295,0.7666602465249104,0.3620220991864403,0.5956663459736187,804.2490842490843,813.919413919414,796.1904761904763,815.5311355311355,763.956043956044,688.6080586080586,-0.170044,0.000061,0.995056,5.106659,-1.315918,-30.856781,1,1,1,1,1,91.000000
2025-01-05 12:48:51.271,0.4984910465614484,0.4881289664719711,0.4571852817585977,0.6611020195465981,0.4369661178734663,0.6468589396727991,-0.1047043678993863,0.421632322740676,0.7320394673126599,0.8221062768117913,0.5275309221170164,0.8693850127357207,1.298283167613911,1.038100468052167,0.5488948508439767,0.794668142895629,1.203877063240242,0.9210984018018408,0.2727002046745098,0.5998754987585057,797.3992673992674,815.934065934066,798.2051282051282,798.2051282051282,770,832.4542124542124,-0.141663,0.000000,0.997009,-0.598145,-0.807495,3.701019,1,1,1,1,1,91.000000
2025-01-05 12:48:51.762,0.653084958907701,0.4204366051768115,0.5229783063199873,0.9224453902303094,0.4431433570681616,0.7321562502110061,0.008188214483070706,0.4497152369715037,0.8332910811808678,0.8180239211409335,0.6710838948677207,0.676770903438307,1.27284025540302,1.078758162351693,0.5171388925583199,0.8837935760446788,1.245201169301089,1.044531956508528,0.3643568274271875,0.6102701677026823,801.025641025641,809.4871794871796,796.5934065934066,832.4542124542124,788.5347985347986,749.8534798534798,-0.132690,0.043274,1.015564,-1.398163,-5.256195,-2.459869,1,1,1,1,1,91.000000
2025-01-05 12:48:52.264,0.737512305937351,0.4559988888183557,0.5652369677699679,1.055388937883431,0.5126586874443981,0.8465374269045547,0.1145285460841704,0.519697256505631,0.8332910811808678,0.8076640786423969,0.6632039759401317,0.7404690906856749,1.211088600315267,1.102389944054588,0.477219833159713,0.9319214300239675,1.277116917339936,1.149993023593309,0.3828902795918155,0.6464424135230078,815.934065934066,801.4285714285714,800.2197802197802,807.0695970695971,845.3479853479854,768.3882783882784,-0.125610,0.037781,1.012878,1.016846,1.271057,2.078552,1,1,1,1,1,91.000000
2025-01-05 12:48:52.766,0.7853377855587695,0.08199780108372164,0.3867574002634859,0.9440506581006324,0.5243657224730469,0.2106137199787402,0.08913574991245796,0.7265539276454154,0.8747925872966994,0.179097047793363,0.6630349822514104,0.7878810440579658,1.230074169205061,0.8627667649789486,0.5769540474670111,0.9578305814715463,1.303782488801765,0.8559665585012924,0.5667680161604107,0.7573060301083017,799.8168498168499,792.967032967033,786.5201465201466,815.934065934066,835.6776556776557,835.2747252747253,-0.131653,0.046021,0.979614,0.186920,-1.727142,0.485992,1,1,1,1,1,91.000000
2025-01-05 12:48:53.262,0.4430622323422274,0.1906713019090019,0.2666390612982588,0.66784534005304,0.6521417771836479,0.4474367862139815,0.01685285438011299,0.7208827359568832,0.8651125863014936,0.3927735896802535,0.6493315967685054,0.8023493793246894,1.363416468904636,0.924611626356906,0.6601040352936196,0.9617452029787736,1.262451532419339,0.8814263219468494,0.6012627534248151,0.7880386736005802,822.3809523809524,789.7435897435897,799.8168498168499,813.1135531135532,788.5347985347986,757.1062271062272,-0.123779,0.049072,0.985596,2.572021,-4.486084,1.031799,1,1,1,1,1,91.000000
2025-01-05 12:48:53.762,0.4430622323422274,0.1814572451806395,0.04526318691587967,0.5034601586685481,0.6521417771836479,0.3157935937143323,-0.04119108228581777,0.7282109773466973,0.8651125863014936,0.4801744754987913,0.52338877649395,0.9424886386655897,1.363416468904636,0.9117499863199904,0.631924466361179,0.9181417927623742,1.262451532419339,0.7895291245645587,0.6179632522296375,0.7635817039908671,857.4358974358975,815.934065934066,804.6520146520147,789.7435897435897,831.2454212454213,815.1282051282052,0.013489,0.068970,1.011169,-4.044952,-24.479065,-12.269440,1,1,1,1,1,91.000000
2025-01-05 12:48:54.261,0.8848727951919942,0.440700152878737,0.04775542457529382,0.8163215467669793,0.9798891662756394,0.2777213524680734,-0.08918717914179033,0.8601081318711766,1.183438152998229,0.5392469134368245,0.6516647647674162,1.010182708880378,1.383644289295207,0.8918682618885252,0.5352520176164126,0.8708478102125772,1.380420539962921,0.7241548582227001,0.4623358284048924,0.6621200495746593,715.2014652014652,770,807.8754578754579,702.7106227106227,737.3626373626374,730.9157509157509,0.151245,-0.016357,1.030212,2.355194,13.869476,19.245300,1,1,1,1,1,91.000000
2025-01-05 12:48:54.520,,,,,,,,,,,,,,,,,,,,,,,,,,,,,,,,,,,,,,,/muse/elements/blink
2025-01-05 12:48:54.766,1.005191051994264,0.5298872722354486,0.5365286400114671,0.9715405829937481,1.084169248400946,0.04523991088600469,0.1277178473237194,0.9733480151659385,1.14758786984143,0.5830801306504312,0.5187957373696456,1.010182708880378,1.4096608901803,0.8365199506285932,0.3725949581950581,0.8674256426012016,1.455414543649966,0.6008067986139575,0.2385415759418686,0.6493070536534603,828.8278388278388,796.1904761904763,816.3369963369963,798.2051282051282,809.0842490842491,729.3040293040293,-0.052185,0.056458,0.987061,2.295380,5.256195,14.258270,1,1,1,1,1,91.000000
