TimeStamp,Delta_TP9,Delta_AF7,Delta_AF8,Delta_TP10,Theta_TP9,Theta_AF7,Theta_AF8,Theta_TP10,Alpha_TP9,Alpha_AF7,Alpha_AF8,Alpha_TP10,Beta_TP9,Beta_AF7,Beta_AF8,Beta_TP10,Gamma_TP9,Gamma_AF7,Gamma_AF8,Gamma_TP10,RAW_TP9,RAW_AF7,RAW_AF8,RAW_TP10,AUX_RIGHT,AUX_LEFT,Accelerometer_X,Accelerometer_Y,Accelerometer_Z,Gyro_X,Gyro_Y,Gyro_Z,HeadBandOn,HSI_TP9,HSI_AF7,HSI_AF8,HSI_TP10,Battery,Elements
2024-12-21 15:57:55.399,,,,,,,,,,,,,,,,,,,,,,,,,,,,,,,,,,,,,,,/muse/event/connected MuseS-9CF6
2024-12-21 15:57:55.451,,,,,,,,,,,,,,,,,,,,,,,,,,,,,,,,,,,,,,,/muse/elements/blink
2024-12-21 15:57:55.899,0.4777458065859864,0.3657449368689004,0.550455749057732,0.1025718237488494,0.5273514624840191,0.04558285496605883,0.219958328760962,-0.1593509951151874,0.6014899670533995,0.5662930454051635,0.1327318455169837,0.07638407917251398,0.679502790128037,0.2481501716574048,-0.1874933437648625,0.2829919783594883,0.5050288870469321,0.09898207824353868,-0.3216464714847373,-0.2364113523864248,785.7142857142858,805.8608058608058,805.8608058608058,801.8315018315019,837.6923076923077,680.5494505494506,-0.350769,0.038330,0.940002,0.560760,-1.278534,-1.054230,1,2,1,1,2,92.000000
2024-12-21 15:57:56.400,0.4777458065859864,0.2129451641817518,0.3836834400282271,0.1025718237488494,0.5273514624840191,0.04024144933665565,0.02879500811160728,-0.1593509951151874,0.6014899670533995,0.2512841238382845,0.01799160901692659,0.07638407917251398,0.679502790128037,0.1744469479225493,-0.2058488622738016,0.2829919783594883,0.5050288870469321,-0.009047306422128226,-0.3703437365669739,-0.2364113523864248,805.8608058608058,806.2637362637363,799.8168498168499,798.6080586080586,850.5860805860806,651.1355311355312,-0.351013,0.027649,0.935486,0.702820,-2.115936,-1.420593,1,2,1,1,2,92.000000
2024-12-21 15:57:56.651,,,,,,,,,,,,,,,,,,,,,,,,,,,,,,,,,,,,,,,/muse/elements/blink
2024-12-21 15:57:56.900,0.4777458065859864,0.4622465585565817,0.7299754375788187,0.1025718237488494,0.5273514624840191,0.4084290705080821,0.3555039532611979,-0.1593509951151874,0.6014899670533995,0.3718601303886254,0.09341141010073134,0.07638407917251398,0.679502790128037,0.2224127249951178,0.004560442581732589,0.2829919783594883,0.5050288870469321,0.02901190534395795,-0.3711998108249435,-0.2364113523864248,822.3809523809524,799.8168498168499,798.6080586080586,809.8901098901099,847.7655677655678,711.5750915750916,-0.341187,0.041443,0.935730,0.635529,-2.198181,1.136475,1,2,1,1,2,92.000000
2024-12-21 15:57:57.406,0.4777458065859864,0.8729689462921386,1.078378681783334,0.1025718237488494,0.5273514624840191,0.7350697307427336,0.4183160530939622,-0.1593509951151874,0.6014899670533995,0.5149792091598342,0.1591183553662245,0.07638407917251398,0.679502790128037,0.2795189921950261,0.0404532941184734,0.2829919783594883,0.5050288870469321,0.1572657375060262,-0.3940573349331274,-0.2364113523864248,785.7142857142858,800.6227106227107,802.6373626373627,798.2051282051282,753.8827838827839,647.9120879120879,-0.344727,0.038391,0.935730,-0.014954,-1.173859,-0.598145,1,2,1,1,2,92.000000
2024-12-21 15:57:57.908,0.4777458065859864,0.8869897995788647,0.9282509390213561,0.1025718237488494,0.5273514624840191,0.7302757473538561,0.344991784254387,-0.1593509951151874,0.6014899670533995,0.4957810033996513,0.1666237067766374,0.07638407917251398,0.679502790128037,0.4313486864295868,0.06092881935866304,0.2829919783594883,0.5050288870469321,0.3196425264049824,-0.3502374204038665,-0.2364113523864248,848.1684981684982,790.952380952381,782.0879120879121,842.1245421245421,852.1978021978023,935.2014652014652,-0.305359,0.043823,0.954285,0.067291,-5.024414,-0.224304,1,2,1,1,2,92.000000
2024-12-21 15:57:57.944,,,,,,,,,,,,,,,,,,,,,,,,,,,,,,,,,,,,,,,/muse/elements/blink
2024-12-21 15:57:58.400,0.4777458065859864,0.8410016449432181,0.9884799293443577,0.1025718237488494,0.5273514624840191,0.6348937599954806,0.3260767619848612,-0.1593509951151874,0.6014899670533995,0.6034776060079177,0.1110705195441159,0.07638407917251398,0.679502790128037,0.4941814840463574,0.06774656161659068,0.2829919783594883,0.5050288870469321,0.3865622085859691,-0.3427115142048497,-0.2364113523864248,801.8315018315019,798.6080586080586,801.025641025641,820.7692307692308,693.8461538461538,585.8608058608058,-0.321960,0.026123,0.943054,-2.257996,0.874786,1.457977,1,2,1,1,2,92.000000
2024-12-21 15:57:58.735,,,,,,,,,,,,,,,,,,,,,,,,,,,,,,,,,,,,,,,/muse/elements/blink
2024-12-21 15:57:58.901,0.4777458065859864,0.3990320287525463,0.3376504860841971,0.1025718237488494,0.5273514624840191,0.2647015436525068,0.1703754569482988,-0.1593509951151874,0.6014899670533995,0.4464513958553043,-0.2415456269028975,0.07638407917251398,0.679502790128037,0.4191415556625609,0.09551496640575201,0.2829919783594883,0.5050288870469321,0.3194234010722358,-0.281029634334687,-0.2364113523864248,839.3040293040293,795.3846153846154,785.7142857142858,873.5531135531136,774.4322344322345,612.8571428571429,-0.339844,0.033875,0.932373,1.405640,-1.166382,-0.276642,1,2,1,1,2,92.000000
2024-12-21 15:57:59.174,,,,,,,,,,,,,,,,,,,,,,,,,,,,,,,,,,,,,,,/muse/elements/jaw_clench
2024-12-21 15:57:59.405,0.4777458065859864,0.5717064116587031,0.3067162516422853,0.1025718237488494,0.5273514624840191,0.4105152351773877,0.1914709813829445,-0.1593509951151874,0.6014899670533995,0.4289473408913809,-0.2537381701782918,0.07638407917251398,0.679502790128037,0.3306714574273217,0.04828814712509724,0.2829919783594883,0.5050288870469321,0.2346178007258791,-0.3032548219667173,-0.2364113523864248,703.919413919414,740.989010989011,828.021978021978,843.7362637362637,798.6080586080586,582.6373626373627,-0.339294,0.054199,0.922852,0.448608,-1.644897,-0.022430,1,2,1,1,2,92.000000
2024-12-21 15:57:59.788,,,,,,,,,,,,,,,,,,,,,,,,,,,,,,,,,,,,,,,/muse/elements/blink
2024-12-21 15:57:59.899,0.4777458065859864,0.5752614930293496,0.3067162516422853,0.1025718237488494,0.5273514624840191,0.4476546469415219,0.1914709813829445,-0.1593509951151874,0.6014899670533995,0.4051236059082975,-0.2537381701782918,0.07638407917251398,0.679502790128037,0.2498327394734554,0.04828814712509724,0.2829919783594883,0.5050288870469321,0.1845110691450828,-0.3032548219667173,-0.2364113523864248,827.2161172161173,787.7289377289378,792.5641025641025,820.7692307692308,918.2783882783883,803.8461538461539,-0.324951,0.027954,0.949524,0.403748,-0.814972,-0.882263,1,2,1,1,2,92.000000
2024-12-21 15:58:00.297,,,,,,,,,,,,,,,,,,,,,,,,,,,,,,,,,,,,,,,/muse/elements/blink
2024-12-21 15:58:00.400,0.4777458065859864,0.7186570563227817,0.3067162516422853,0.1025718237488494,0.5273514624840191,0.5111053181478907,0.1914709813829445,-0.1593509951151874,0.6014899670533995,0.1111999949027006,-0.2537381701782918,0.07638407917251398,0.679502790128037,0.2961831353679642,0.04828814712509724,0.2829919783594883,0.5050288870469321,0.2374215959500515,-0.3032548219667173,-0.2364113523864248,785.7142857142858,799.8168498168499,790.952380952381,802.2344322344322,830.4395604395604,666.8498168498169,-0.313843,-0.007141,0.969055,-1.069183,-0.508423,-1.114044,1,2,1,1,2,92.000000
2024-12-21 15:58:00.900,0.4777458065859864,0.5393373841512116,0.3067162516422853,0.1025718237488494,0.5273514624840191,0.4915105719259485,0.1914709813829445,-0.1593509951151874,0.6014899670533995,0.6626550167700808,-0.2537381701782918,0.07638407917251398,0.679502790128037,0.3697338451880268,0.04828814712509724,0.2829919783594883,0.5050288870469321,0.3269959495804468,-0.3032548219667173,-0.2364113523864248,788.9377289377289,794.981684981685,799.4139194139194,805.4578754578755,770.4029304029305,848.974358974359,-0.393188,0.060364,0.937073,-0.986938,2.287903,-1.121521,1,2,1,1,2,92.000000
2024-12-21 15:58:01.324,,,,,,,,,,,,,,,,,,,,,,,,,,,,,,,,,,,,,,,/muse/elements/blink
2024-12-21 15:58:01.402,0.4777458065859864,0.3915225836549222,0.37883849090925,0.1025718237488494,0.5273514624840191,0.2834422327597624,0.08783512255963109,-0.1593509951151874,0.6014899670533995,0.657433570633045,-0.06537025509650383,0.07638407917251398,0.679502790128037,0.2629397733466614,-0.04256895605546966,0.2829919783594883,0.5050288870469321,0.4061368422964057,-0.3950701509945189,-0.2364113523864248,830.4395604395604,796.5934065934066,791.7582417582418,816.7399267399268,857.4358974358975,691.025641025641,-0.333862,0.010132,1.053772,2.691650,-1.988831,4.433746,1,2,1,1,2,92.000000
2024-12-21 15:58:01.906,0.4777458065859864,0.5291870344760473,0.37883849090925,0.1025718237488494,0.5273514624840191,0.3069965113467629,0.08783512255963109,-0.1593509951151874,0.6014899670533995,0.7063339318289575,-0.06537025509650383,0.07638407917251398,0.679502790128037,0.2898074648984854,-0.04256895605546966,0.2829919783594883,0.5050288870469321,0.3609206810426613,-0.3950701509945189,-0.2364113523864248,836.8864468864469,819.1575091575091,815.934065934066,825.2014652014652,835.6776556776557,660.4029304029305,-0.416626,-0.024719,0.903259,-4.815063,-0.904694,-1.674805,1,2,1,1,2,92.000000
2024-12-21 15:58:02.409,0.4777458065859864,0.4433586924423244,0.4313024930333634,0.1025718237488494,0.5273514624840191,0.1033737662858388,0.05783198404991875,-0.1593509951151874,0.6014899670533995,0.575781773376416,-0.06619306753513357,0.07638407917251398,0.679502790128037,0.4252530163788544,-0.01759719017524653,0.2829919783594883,0.5050288870469321,0.4426478713513334,-0.256089463914475,-0.2364113523864248,814.3223443223443,831.6483516483516,805.0549450549451,812.3076923076924,863.0769230769231,850.5860805860806,-0.277222,0.104248,0.847900,-2.930908,-0.164490,-1.637421,1,2,1,1,2,92.000000
2024-12-21 15:58:02.900,1.261887414069431,0.4188459683819004,0.2856648977103249,0.3705300690131514,1.164300599508894,0.130191203148136,0.02253170625229613,0.08483679741347006,0.8513913894018807,0.5772772721784644,0.1087379300572092,0.4733193759665029,1.11073691447255,0.493211182564334,0.123747147078987,0.439341500815498,0.7785733122817303,0.4425928693027418,-0.2528938323644552,0.2129638248301766,684.981684981685,815.1282051282052,840.1098901098901,679.7435897435897,854.2124542124542,703.1135531135532,-0.347473,0.091248,0.881897,0.276642,2.302856,4.486084,1,2,1,1,2,92.000000
2024-12-21 15:58:03.165,,,,,,,,,,,,,,,,,,,,,,,,,,,,,,,,,,,,,,,/muse/elements/blink
2024-12-21 15:58:03.400,1.261887414069431,0.4098340829826794,0.6823438737969397,0.3705300690131514,1.164300599508894,0.1991046755970585,0.3593916449730354,0.08483679741347006,0.8513913894018807,0.5071444283563552,0.1960013053050494,0.4733193759665029,1.11073691447255,0.6245194403717571,0.1422694116537682,0.439341500815498,0.7785733122817303,0.4386447404033047,-0.2861265392476396,0.2129638248301766,794.5787545787546,796.1904761904763,805.4578754578755,813.919413919414,812.3076923076924,837.2893772893773,-0.333313,-0.012146,0.891479,1.315918,-2.684174,1.614990,1,1,1,1,1,92.000000
2024-12-21 15:58:03.900,1.261887414069431,0.5559686649479054,0.7264281423662337,0.3705300690131514,1.164300599508894,0.2936687354599143,0.4054328775555285,0.08483679741347006,0.8513913894018807,0.4392790460207652,0.1960013053050494,0.4733193759665029,1.11073691447255,0.5228668247814174,0.163084575852695,0.439341500815498,0.7785733122817303,0.2616211281510586,-0.3022395055178677,0.2129638248301766,806.2637362637363,800.6227106227107,803.4432234432235,800.6227106227107,798.2051282051282,774.4322344322345,-0.324707,0.022766,0.946777,-2.983246,9.203949,-6.430054,1,1,1,1,1,92.000000
2024-12-21 15:58:04.399,1.261887414069431,0.5605643819152756,0.6802203850786426,0.3705300690131514,1.164300599508894,0.2501054068425131,0.3198321329389086,0.08483679741347006,0.8513913894018807,0.4391160169172794,0.2157572730344619,0.4733193759665029,1.11073691447255,0.3829914417963096,0.0230668242326197,0.439341500815498,0.7785733122817303,-0.002369978520600017,-0.3559276418829492,0.2129638248301766,815.5311355311355,804.6520146520147,803.8461538461539,794.1758241758242,803.040293040293,680.1465201465202,-0.371948,0.073547,0.858398,-1.166382,-2.295380,0.725250,1,1,1,1,1,92.000000
2024-12-21 15:58:04.660,,,,,,,,,,,,,,,,,,,,,,,,,,,,,,,,,,,,,,,/muse/elements/blink
2024-12-21 15:58:04.900,1.261887414069431,0.3325116172198711,0.5690836443476539,0.3705300690131514,1.164300599508894,0.001759873072442067,0.110874575701453,0.08483679741347006,0.8513913894018807,0.2450264613243097,0.376450439582614,0.4733193759665029,1.11073691447255,0.04598223037526016,-0.08037442833717204,0.439341500815498,0.7785733122817303,0.1416226068309849,-0.3205009749604347,0.2129638248301766,811.9047619047619,803.040293040293,793.3699633699634,815.934065934066,719.2307692307693,566.1172161172161,-0.342529,-0.014771,0.882019,-0.104675,-3.985138,0.261688,1,1,1,1,1,92.000000
2024-12-21 15:58:05.400,1.261887414069431,-0.3386263189994371,0.9690928321563457,0.3705300690131514,1.164300599508894,-0.1576321068779832,0.4838042039369709,0.08483679741347006,0.8513913894018807,0.4259122118657954,0.4164487875533117,0.4733193759665029,1.11073691447255,0.08405585876093753,-0.05426782607402246,0.439341500815498,0.7785733122817303,0.1829183007403055,-0.352429582030353,0.2129638248301766,811.9047619047619,797.8021978021978,805.8608058608058,809.8901098901099,742.6007326007326,433.956043956044,-0.333130,0.034058,1.142944,-2.093506,7.618866,-6.213226,1,1,1,1,1,92.000000
2024-12-21 15:58:05.872,,,,,,,,,,,,,,,,,,,,,,,,,,,,,,,,,,,,,,,/muse/elements/blink
2024-12-21 15:58:05.902,1.261887414069431,-0.125844984988177,1.000614579722206,0.3705300690131514,1.164300599508894,-0.09989839801952188,0.5394782997622235,0.08483679741347006,0.8513913894018807,0.4004460304875804,0.3788161702599921,0.4733193759665029,1.11073691447255,0.1544326204834315,-0.1161171054349881,0.439341500815498,0.7785733122817303,0.2210850602841559,-0.3812007477159169,0.2129638248301766,814.7252747252747,793.7728937728938,803.040293040293,844.1391941391942,860.2564102564103,709.9633699633699,-0.350952,0.076538,0.854797,0.336456,-0.007477,4.239349,1,2,1,1,2,92.000000
2024-12-21 15:58:06.400,1.261887414069431,0.6763006363260896,1.085957312795456,0.3705300690131514,1.164300599508894,0.1930149035995074,0.6211063068103531,0.08483679741347006,0.8513913894018807,0.3628491055907312,0.3649389005492112,0.4733193759665029,1.11073691447255,0.1205073259723116,-0.1732618653929159,0.439341500815498,0.7785733122817303,-0.02236361649701011,-0.4119455288977938,0.2129638248301766,788.1318681318681,799.8168498168499,801.025641025641,805.8608058608058,766.3736263736264,650.3296703296703,-0.330017,0.010254,0.885681,0.097198,-0.837402,0.665436,1,2,1,1,2,92.000000
2024-12-21 15:58:06.900,1.261887414069431,0.740002152280708,0.7244152313329438,0.3705300690131514,1.164300599508894,0.1783102578900403,0.3260150076542897,0.08483679741347006,0.8513913894018807,0.133962386570312,-0.1849458902644567,0.4733193759665029,1.11073691447255,0.05118773553193907,-0.3705946827508175,0.439341500815498,0.7785733122817303,-0.1371051926450715,-0.4164694397296176,0.2129638248301766,817.5457875457876,808.2783882783883,794.5787545787546,802.6373626373627,778.4615384615385,822.3809523809524,-0.287537,0.090271,0.858521,-1.158905,0.934601,-2.729034,1,2,1,1,2,92.000000
2024-12-21 15:58:07.400,1.261887414069431,0.7448431002773159,0.6740027448899897,0.3705300690131514,1.164300599508894,0.1649442618948606,0.2706217049948358,0.08483679741347006,0.8513913894018807,-0.08952709411119102,0.01341586456434516,0.4733193759665029,1.11073691447255,0.02418714902541983,-0.1879274413292291,0.439341500815498,0.7785733122817303,-0.2030676767502282,-0.3590485119144537,0.2129638248301766,784.9084249084249,800.6227106227107,801.8315018315019,794.981684981685,785.3113553113553,638.6446886446887,-0.349182,0.098877,0.865173,-2.519684,-8.493652,3.805695,1,2,1,1,2,92.000000
2024-12-21 15:58:07.900,1.354704123214993,0.2447075998863282,0.06873978615163268,0.3705300690131514,0.6877527468619348,-0.2223896432452106,0.03162370677022455,0.08483679741347006,0.6129022716300019,0.03747655383741133,0.05559924801356982,0.4733193759665029,0.7942618848769682,0.02262989097486951,-0.1322776968025869,0.439341500815498,0.2702447459877425,-0.2395568303872855,-0.5081581459629094,0.2129638248301766,811.9047619047619,803.8461538461539,801.8315018315019,811.9047619047619,886.0439560439561,714.7985347985348,-0.356323,0.002319,0.908447,3.072968,0.934601,-0.328979,1,2,1,1,2,92.000000
2024-12-21 15:58:08.220,,,,,,,,,,,,,,,,,,,,,,,,,,,,,,,,,,,,,,,/muse/elements/blink
2024-12-21 15:58:08.400,1.354704123214993,0.1124615581256419,0.320094334056946,0.3705300690131514,0.6877527468619348,-0.3412274174921684,0.1578877755524107,0.08483679741347006,0.6129022716300019,0.005611466956185365,0.06919038741148245,0.4733193759665029,0.7942618848769682,0.04864779308344475,-0.1364648668851853,0.439341500815498,0.2702447459877425,-0.2352740558749477,-0.4926054032782711,0.2129638248301766,788.1318681318681,796.1904761904763,799.4139194139194,809.8901098901099,806.2637362637363,707.5457875457876,-0.368347,0.085205,0.925903,0.381317,-0.829926,-5.054321,1,1,1,1,1,92.000000
2024-12-21 15:58:08.832,,,,,,,,,,,,,,,,,,,,,,,,,,,,,,,,,,,,,,,/muse/elements/blink
2024-12-21 15:58:08.907,1.354704123214993,0.3043670371101002,0.5145836800855323,0.3705300690131514,0.6877527468619348,0.01235223637511349,0.308020009504913,0.08483679741347006,0.6129022716300019,0.3282709726646528,0.1727422642149839,0.4733193759665029,0.7942618848769682,0.04449168834122375,-0.1224398564237516,0.439341500815498,0.2702447459877425,-0.2131595688080413,-0.5141917575022907,0.2129638248301766,823.1868131868132,811.0989010989011,801.4285714285714,822.3809523809524,907.8021978021978,743.8095238095239,-0.463318,0.044067,1.226562,1.936493,-5.473022,6.833801,1,1,1,1,1,92.000000
2024-12-21 15:58:09.400,1.354704123214993,0.4546182899603025,0.7076158102024812,0.3705300690131514,0.6877527468619348,0.2934864908815752,0.3997374490421799,0.08483679741347006,0.6129022716300019,0.5573071080274958,0.6162072085063881,0.4733193759665029,0.7942618848769682,0.05227542241019191,-0.124924663448768,0.439341500815498,0.2702447459877425,-0.1997709495904516,-0.3201594059334666,0.2129638248301766,859.047619047619,806.2637362637363,804.6520146520147,873.956043956044,731.7216117216118,616.8864468864469,-0.357727,-0.019775,0.865967,-1.054230,3.910370,-1.472931,1,1,1,1,1,92.000000
2024-12-21 15:58:09.860,,,,,,,,,,,,,,,,,,,,,,,,,,,,,,,,,,,,,,,/muse/elements/blink
2024-12-21 15:58:09.900,1.354704123214993,0.5226684344091856,0.6118419092485311,0.3705300690131514,0.6877527468619348,0.3338833555610911,0.3180393961268587,0.08483679741347006,0.6129022716300019,0.5573071080274958,0.6199583075802172,0.4733193759665029,0.7942618848769682,-0.01237319382854384,-0.1135086882645579,0.439341500815498,0.2702447459877425,-0.1623574910981853,-0.2444736317540507,0.2129638248301766,826.8131868131868,803.4432234432235,795.3846153846154,828.4249084249085,757.5091575091575,606.4102564102565,-0.322083,0.056946,0.855225,2.564545,-3.977661,-6.108551,1,1,1,1,1,92.000000
2024-12-21 15:58:10.400,1.354704123214993,0.6985211274877545,0.5930981960198621,0.3705300690131514,0.6877527468619348,0.4126198174866941,0.372168491812265,0.08483679741347006,0.6129022716300019,0.5573071080274958,0.6183169066937783,0.4733193759665029,0.7942618848769682,0.1020608826868607,-0.1440385178572753,0.439341500815498,0.2702447459877425,-0.003983019758609986,-0.2882186709461872,0.2129638248301766,834.8717948717949,803.4432234432235,794.1758241758242,790.1465201465202,836.0805860805862,952.5274725274726,-0.416077,-0.032043,1.083862,2.654266,13.570404,6.108551,1,1,1,1,1,92.000000
2024-12-21 15:58:10.900,1.354704123214993,0.6837255229334059,0.5981162926735979,0.3705300690131514,0.6877527468619348,0.4782598489270194,0.322053284951034,0.08483679741347006,0.6129022716300019,0.3137622797371004,0.2855236081774579,0.4733193759665029,0.7942618848769682,0.04647345746980455,-0.106822766373649,0.439341500815498,0.2702447459877425,-0.05850366756610028,-0.377972150981399,0.2129638248301766,819.5604395604396,794.1758241758242,799.0109890109891,805.8608058608058,785.7142857142858,531.4652014652015,-0.400940,0.042725,1.076050,-0.007477,-6.280518,-5.532837,1,2,1,1,2,92.000000
2024-12-21 15:58:11.265,,,,,,,,,,,,,,,,,,,,,,,,,,,,,,,,,,,,,,,/muse/elements/blink
2024-12-21 15:58:11.406,1.354704123214993,0.6890683956693805,0.7240925357194088,0.3705300690131514,0.6877527468619348,0.5977563272263041,0.4150714154144601,0.08483679741347006,0.6129022716300019,0.3038717655480653,0.03137659872479368,0.4733193759665029,0.7942618848769682,0.0672909216157713,-0.1163567590472885,0.439341500815498,0.2702447459877425,-0.1280534258564088,-0.4820892944028962,0.2129638248301766,842.1245421245421,807.8754578754579,796.996336996337,845.7509157509157,832.8571428571429,706.7399267399268,-0.455688,0.063110,0.803223,-1.248627,-1.031799,0.403748,1,2,1,1,2,92.000000
2024-12-21 15:58:11.771,,,,,,,,,,,,,,,,,,,,,,,,,,,,,,,,,,,,,,,/muse/elements/blink
2024-12-21 15:58:11.900,1.354704123214993,0.8525714687486362,1.00304443040386,0.3705300690131514,0.6877527468619348,0.7855790780392633,0.5747580928193498,0.08483679741347006,0.6129022716300019,0.5595410804431304,0.1358993664832209,0.4733193759665029,0.7942618848769682,-0.03557089392892557,-0.07975838190999081,0.439341500815498,0.2702447459877425,-0.3560210311936754,-0.497471058229652,0.2129638248301766,802.2344322344322,809.4871794871796,796.5934065934066,788.5347985347986,820.3663003663004,692.2344322344322,-0.330994,0.012024,0.952271,3.671112,-10.661926,4.134674,1,2,1,1,2,92.000000
2024-12-21 15:58:12.400,1.354704123214993,1.031827230705703,1.261941921854848,0.3705300690131514,0.6877527468619348,0.7741672651318154,0.9017749814165094,0.08483679741347006,0.6129022716300019,0.5849030464820272,0.5578196144494131,0.4733193759665029,0.7942618848769682,0.06978825016627603,-0.1226745567388627,0.439341500815498,0.2702447459877425,-0.2922139971323442,-0.4845794848582139,0.2129638248301766,826.8131868131868,799.0109890109891,805.4578754578755,796.996336996337,738.1684981684982,298.5714285714286,-0.431091,0.041382,1.058777,-1.016846,5.532837,-9.203949,1,2,1,1,2,92.000000
2024-12-21 15:58:12.900,1.354704123214993,1.032300019370441,1.439401940738603,0.3705300690131514,0.6877527468619348,0.7217110641228239,1.05020971738137,0.08483679741347006,0.6129022716300019,0.5871532147594674,0.5568896344303904,0.4733193759665029,0.7942618848769682,0.09142865504296784,0.01679971085414727,0.439341500815498,0.2702447459877425,-0.2717229093986562,-0.118471714712853,0.2129638248301766,805.4578754578755,803.8461538461539,801.8315018315019,795.3846153846154,782.4908424908425,612.4542124542124,-0.378296,0.050964,0.884766,0.471039,-0.643005,5.316010,1,2,1,1,2,92.000000
2024-12-21 15:58:13.400,1.528933863254553,0.8630238532933775,0.9905345602158091,0.3705300690131514,0.9915948255585344,0.357843632644651,0.6444929722346276,0.08483679741347006,0.5181193522462176,0.4582118388017176,0.5551201133344619,0.4733193759665029,0.6593664845069988,0.069389285560196,0.07997754276427353,0.439341500815498,0.1824080013620492,-0.280411856290005,0.07920014544106502,0.2129638248301766,786.1172161172161,799.8168498168499,799.4139194139194,789.3406593406594,746.6300366300367,749.047619047619,-0.354431,0.029907,0.920959,-1.727142,-2.400055,-0.613098,1,1,1,1,1,92.000000
2024-12-21 15:58:13.903,1.275625764249281,0.122667563261699,0.2576291498164001,0.3705300690131514,0.8930286838866581,-0.2434625992371783,-0.1558576840472093,0.08483679741347006,1.059672912154051,0.2437918767607837,-0.0839589026684828,0.4733193759665029,0.79852138498511,0.02591293940019339,-0.02328648988483626,0.439341500815498,0.2332476645629579,-0.3758699576071499,-0.1167297936390887,0.2129638248301766,802.6373626373627,801.4285714285714,805.4578754578755,797.8021978021978,892.0879120879121,1037.142857142857,-0.261414,0.064819,0.787048,-1.084137,-2.990723,-3.865509,1,1,1,1,1,92.000000
2024-12-21 15:58:14.401,1.155656036040269,-0.005317028101173832,0.03352839156655756,0.3018558827016372,0.8276154825729933,-0.2462109450862741,-0.04056159395652885,0.2473303221551385,1.059672912154051,0.1893036785097349,0.07120209692655571,0.01983676742468886,0.7823810166024472,0.01571374966846608,-0.1284526142921738,0.2515222734690033,0.2182975004229817,-0.4034678069558947,-0.4330674734636842,-0.1091769075655273,757.1062271062272,797.3992673992674,814.3223443223443,754.2857142857143,660.4029304029305,492.7838827838828,-0.337952,0.088013,0.941223,-0.590668,-4.934692,2.601929,1,1,1,1,1,92.000000
2024-12-21 15:58:14.579,,,,,,,,,,,,,,,,,,,,,,,,,,,,,,,,,,,,,,,/muse/elements/blink
2024-12-21 15:58:14.900,0.8054434250137107,-0.08530743690574979,0.5111558174006035,0.3018558827016372,0.7638182707643489,-0.04507922507030879,0.3826184283776939,0.2473303221551385,1.059672912154051,0.1844915891136454,0.3464716634459522,0.01983676742468886,0.8356335635637223,-0.0001991364517220091,-0.1096484180838627,0.2515222734690033,0.2699026516353408,-0.3340620260276032,-0.7697168019321025,-0.1091769075655273,786.5201465201466,803.8461538461539,799.8168498168499,806.2637362637363,877.985347985348,733.3333333333334,-0.344788,0.005188,0.896362,4.717865,-7.529144,-1.128998,1,1,1,1,1,92.000000
2024-12-21 15:58:15.400,0.7974197847047514,-0.1545537251342306,0.655437528422217,0.2794579910240251,0.7223918962939376,0.05450135161502219,0.5095526964751683,0.2948088278145043,0.9832466391891662,0.1819582968796012,0.3233612172404166,0.01527937692247989,0.763244425947266,-0.05945946377493201,-0.07010557687186718,0.2358155582715838,0.2865270351409918,-0.2404357688618688,-0.8086652827983395,-0.2072118733071853,767.5824175824176,790.952380952381,807.0695970695971,809.0842490842491,795.7875457875458,716.007326007326,-0.249878,0.092773,0.772461,-3.431854,-5.233765,-1.084137,1,1,1,1,1,92.000000
2024-12-21 15:58:15.905,0.7974197847047514,0.1918135792269865,0.8028739803690108,0.2835466915887205,0.7223918962939376,0.3444382091616349,0.6118790045240199,0.3450404145231264,0.9832466391891662,0.4747585241405564,0.4483522298778534,-0.01812132496676251,0.763244425947266,-0.02197601132528515,0.02608395668277491,0.2101413633832956,0.2865270351409918,-0.1706321790479753,-0.5943332565498363,-0.2179624476629881,806.2637362637363,802.6373626373627,796.1904761904763,834.0659340659341,772.8205128205128,670.4761904761905,-0.346985,0.060181,0.901611,2.280426,4.583282,3.656158,1,1,1,1,1,92.000000
2024-12-21 15:58:16.400,1.324214208317553,0.3217918747598212,0.1161181119448217,0.2835466915887205,1.0505059529885,0.4387690336496111,0.08165234076463103,0.3450404145231264,0.9704573334943548,0.7249456155021737,0.2826356759362232,-0.01812132496676251,1.008145479613592,0.1664088674618196,0.1210854733284144,0.2101413633832956,0.7549343218062048,-0.2221516505104121,-0.004657679935417289,-0.2179624476629881,790.5494505494506,784.5054945054945,796.996336996337,789.3406593406594,860.6593406593407,726.0805860805862,-0.369263,-0.032532,0.859985,1.816864,-0.500946,-1.772003,1,1,1,1,1,92.000000
2024-12-21 15:58:16.841,,,,,,,,,,,,,,,,,,,,,,,,,,,,,,,,,,,,,,,/muse/elements/blink
2024-12-21 15:58:16.900,1.18628224510435,0.5729599268682131,0.007415193015204835,0.2835466915887205,0.9637850359757549,0.6541238104432444,0.2329966788949124,0.3450404145231264,1.086279194698307,0.7719340591697145,0.421554819654796,-0.01812132496676251,0.9768350037209566,0.2247626268521625,0.08954580941600906,0.2101413633832956,0.7858097791650628,-0.173242852325519,0.03280402750962052,-0.2179624476629881,817.1428571428571,799.4139194139194,788.9377289377289,824.3956043956044,782.0879120879121,569.3406593406594,-0.371704,0.081665,0.931946,2.542114,-0.590668,-3.521576,1,1,1,1,1,92.000000
2024-12-21 15:58:17.400,1.18628224510435,0.5735931101002221,0.5532718930141223,0.2835466915887205,0.9637850359757549,0.6887373984051618,0.2661061629444897,0.3450404145231264,1.086279194698307,0.7665249357094115,0.4985858350729603,-0.01812132496676251,0.9768350037209566,0.2687498746151712,0.05819645439617875,0.2101413633832956,0.7858097791650628,-0.1475494439592188,0.03880761613561214,-0.2179624476629881,810.6959706959707,807.0695970695971,799.0109890109891,807.0695970695971,796.5934065934066,761.941391941392,-0.249512,-0.048767,0.806396,-1.233673,3.588867,-0.104675,1,1,1,1,1,92.000000
2024-12-21 15:58:17.899,0.7498177855146863,0.8732091218463077,0.6784871134378986,0.2835466915887205,0.7478878924174903,0.8569159325072627,0.2890299334622641,0.3450404145231264,1.003147451586119,0.7890326198500167,0.5003576733788718,-0.01812132496676251,0.9174956417363265,0.1928594977211461,-0.01318301718280761,0.2101413633832956,0.8404407596718767,-0.06056531175109899,-0.08793358812817531,-0.2179624476629881,821.5750915750916,811.0989010989011,803.040293040293,796.996336996337,807.8754578754579,677.3260073260074,-0.378113,-0.001465,0.957520,1.532745,-8.045044,-0.254211,1,1,1,1,1,92.000000
2024-12-21 15:58:18.410,0.7498177855146863,0.9419912193064942,0.7123426431971237,0.6661415230809582,0.7478878924174903,0.9024099974623693,0.3267337934709623,0.5369882689321117,1.003147451586119,0.7677537679165075,0.385409468301859,0.4958706493330141,0.9174956417363265,0.22180215336461,-0.05660283684579907,0.4743914542359388,0.8404407596718767,-0.08533915950831537,-0.2744874188325038,0.2188695372030722,809.0842490842491,792.967032967033,801.4285714285714,797.8021978021978,853.4065934065934,761.1355311355312,-0.379517,0.058838,0.870789,1.420593,-6.168365,0.508423,1,1,1,1,1,92.000000
2024-12-21 15:58:18.882,,,,,,,,,,,,,,,,,,,,,,,,,,,,,,,,,,,,,,,/muse/elements/blink
2024-12-21 15:58:18.900,0.7498177855146863,0.8443102588955016,0.3672388684139675,0.7859650825715466,0.7478878924174903,0.842004379643069,0.2227885023705412,0.4822830680326422,1.003147451586119,0.8274347136991584,0.3094859321465646,0.5116046028487632,0.9174956417363265,0.2109248649089873,-0.1248068235542894,0.443643156713223,0.8404407596718767,-0.09526392170163908,-0.3831219103903813,0.2094428196094391,837.2893772893773,803.4432234432235,778.8644688644689,852.6007326007326,1037.948717948718,1301.868131868132,-0.371582,-0.030090,0.954468,0.142059,-4.246826,6.130981,1,1,1,1,1,92.000000
2024-12-21 15:58:19.400,0.7498177855146863,0.7279409937423678,1.080978050482936,0.7859650825715466,0.7478878924174903,0.786141550284047,0.4626542156803216,0.4822830680326422,1.003147451586119,0.7414528220469282,0.2783072502345863,0.5116046028487632,0.9174956417363265,0.2229747005127342,-0.2499134468325871,0.443643156713223,0.8404407596718767,-0.1757343594206112,-0.4435589344630936,0.2094428196094391,812.3076923076924,810.6959706959707,805.8608058608058,816.3369963369963,811.0989010989011,614.0659340659341,-0.461365,0.009827,1.112793,-2.527161,-9.218903,-4.007568,1,1,1,1,1,92.000000
2024-12-21 15:58:19.910,0.7498177855146863,0.6494116314850527,1.164985442779116,0.87046635305499,0.7478878924174903,0.7788891173397436,0.4687062676954797,0.3929232317129995,1.003147451586119,0.7399234082299013,0.3016780383809237,0.4153179509320102,0.9174956417363265,0.2505690387139244,-0.26352459280938,0.3835838023913973,0.8404407596718767,-0.1617310807201782,-0.4808142481425371,0.1894384532733466,812.7106227106227,805.8608058608058,803.040293040293,808.6813186813187,786.1172161172161,884.8351648351648,-0.396790,0.054321,0.861145,-0.568237,-3.678589,-3.850555,1,1,1,1,1,92.000000
2024-12-21 15:58:20.400,0.7498177855146863,0.7148914880814214,1.201559742452767,0.699025008743702,0.7478878924174903,0.776440336985556,0.5488276679239987,0.7465796330739182,1.003147451586119,0.8944305196061586,0.5371628165854987,0.7318716980318407,0.9174956417363265,0.3933060228332441,-0.03575111609304879,0.7334392972280884,0.8404407596718767,-0.1367108388956215,-0.4895461476313598,0.1868459460205733,723.6630036630037,780.0732600732601,808.2783882783883,794.5787545787546,894.908424908425,810.6959706959707,-0.398926,-0.008423,0.828430,1.682281,11.394653,0.052338,1,1,1,1,1,92.000000
2024-12-21 15:58:20.900,1.4995823449532,0.8296783099506446,0.9982415455559995,0.9261007640742573,1.341348960819504,0.880698736683774,0.5582014066309731,0.7894665346961698,1.516407881212286,1.254008298052656,0.5930486979237519,1.022110507826611,1.193280262701242,0.5459098485540514,0.05995097024232168,0.7291423513336556,0.6437293557002328,0.01998349923562863,-0.3682839214240611,0.1994273144841772,803.040293040293,809.4871794871796,799.4139194139194,796.5934065934066,865.8974358974359,790.952380952381,-0.362366,0.081299,0.807373,0.149536,-4.463654,-5.973969,1,1,1,1,1,92.000000
2024-12-21 15:58:21.400,1.533964420080926,0.9323311530268024,0.8340176726794619,0.9288262845855623,1.329062178462175,0.8788018739378626,0.5432563236146475,0.805247055501731,1.516407881212286,1.254008298052656,0.729140180629236,1.101755995513716,1.183995898825738,0.5970245979698452,0.1139951532917055,0.6369262458863737,0.6767240808826379,0.06567477326907427,-0.3658075216819196,0.2460627595008259,772.014652014652,809.4871794871796,794.1758241758242,806.2637362637363,905.3846153846154,914.6520146520147,-0.283386,-0.049500,0.871643,1.114044,-4.987030,3.955231,1,1,1,1,1,92.000000
2024-12-21 15:58:21.907,1.666264333413381,0.9335266857144716,0.7259948774675694,0.9712209182281997,1.452268733321667,0.8578106263503509,0.459602141036375,0.7926423451904975,1.459608627243923,1.213610714091799,0.7249533254429015,1.073511772358183,1.161124618444314,0.5024720939743659,0.03016792935274086,0.7186247569241561,0.7597415225824016,0.005349188506322351,-0.2599915030194035,0.305663970955437,810.2930402930403,805.0549450549451,801.8315018315019,810.6959706959707,832.0512820512821,848.5714285714286,-0.493408,-0.054199,0.996826,3.902893,0.829926,6.295471,1,1,1,1,1,92.000000
2024-12-21 15:58:22.400,1.610602145658723,0.9453762351292172,0.5725044230500576,0.9992722642482065,1.188727855010421,0.7485564056997243,0.3481627123286439,0.7878225015052771,1.201587518086854,0.6915222126438447,0.7240794538736246,1.034224853801929,1.133984109210264,0.3882224084061259,0.0589924487059196,0.6730257573023104,0.5720665604516422,-0.1564841019375608,-0.3305703883049353,0.2594964306573287,796.996336996337,775.2380952380953,790.5494505494506,789.7435897435897,661.6117216117216,245.7875457875458,-0.401123,0.026733,1.139038,-5.233765,7.985229,1.196289,1,1,1,1,1,92.000000
2024-12-21 15:58:22.900,1.604597485899274,0.9145078433259075,0.3373718112359336,1.005216865052085,1.194954009514791,0.7582553912135436,0.2638116469486541,0.7427821328415007,1.16786520726276,0.6980666173302946,0.3623726773030012,0.7121644776250412,1.173326108712168,0.3757258617200586,0.04425139692524927,0.6208986885206478,0.5634961806340831,-0.147116454334446,-0.3070409403614257,0.2245114848136893,786.5201465201466,798.2051282051282,795.7875457875458,791.3553113553114,790.952380952381,652.3443223443223,-0.386414,0.054260,0.870422,-0.568237,0.957031,1.465454,1,1,1,1,1,92.000000
2024-12-21 15:58:23.400,1.528684735835611,0.9011919716953234,0.3539548812062038,0.9811697737305048,1.290553186754154,0.7882965492369567,0.3091261089057643,0.7311634209974827,1.186785483403248,0.6869110314809357,0.38965394783521,0.7055580653693668,1.097137436551204,0.2776857044521479,-0.04775802704317984,0.3956374302475273,0.6815464377935694,-0.09621223248854012,-0.3754675515345499,0.151372954073564,830.8424908424909,792.5641025641025,779.6703296703297,818.3516483516484,845.7509157509157,701.0989010989011,-0.348694,-0.009521,0.857910,4.329071,-4.261780,-0.538330,1,1,1,1,1,92.000000
2024-12-21 15:58:23.455,,,,,,,,,,,,,,,,,,,,,,,,,,,,,,,,,,,,,,,/muse/elements/blink
2024-12-21 15:58:23.904,1.510798696381794,0.8705822507551075,0.3809203170746991,0.8363057959090427,1.345769807992324,0.8115591151834478,0.3318370382178386,0.6385304748440526,0.9147439122018691,0.6670683533604765,0.4047042615233389,0.6570375976042926,1.06618791358047,0.3951875115888986,-0.1115936512221294,0.1720155163089263,0.7927455330545436,0.03564867314204732,-0.3931138310288187,0.178586599992958,809.4871794871796,798.2051282051282,799.4139194139194,800.2197802197802,863.8827838827839,703.5164835164835,-0.383423,0.083984,0.813782,2.153320,-0.381317,-4.934692,1,1,1,1,1,92.000000
2024-12-21 15:58:24.400,1.434361702387341,0.7062606058740286,0.4143859383560681,0.5289372609005863,1.368774768227311,0.7896119280058929,0.303239237248808,0.5581150660248588,0.9059443423717631,0.6857464306079694,0.373119302328389,0.6570375976042926,1.020552162126368,0.470725393462419,-0.2007141702019503,0.1548370697796544,0.8287683031716592,0.08505709556119942,-0.3693296118918393,0.1642316527020378,813.5164835164835,810.2930402930403,804.6520146520147,819.96336996337,1016.190476190476,1395.750915750916,-0.328430,-0.088562,0.785339,-3.970184,3.072968,-3.820648,1,1,1,1,1,92.000000
2024-12-21 15:58:24.900,1.434361702387341,0.7283629860976968,0.3412946649925911,0.5289372609005863,1.368774768227311,0.7280802192031555,0.3498958811337841,0.5581150660248588,0.9059443423717631,0.595074246738996,0.1393483716983636,0.6570375976042926,1.020552162126368,0.5627235902655475,0.001059788260133695,0.1548370697796544,0.8287683031716592,0.1184896417563684,-0.3196290971410976,0.1642316527020378,791.3553113553114,804.6520146520147,793.3699633699634,781.6849816849817,794.1758241758242,556.4468864468864,-0.454468,-0.069214,1.146790,-0.224304,3.080444,-4.366455,1,1,1,1,1,92.000000
2024-12-21 15:58:25.400,1.434361702387341,0.7018092591516033,0.4819371368811719,0.5289372609005863,1.368774768227311,0.6896883667860122,0.4895506050059063,0.5581150660248588,0.9059443423717631,0.6287611787905796,0.2999694010846187,0.6570375976042926,1.020552162126368,0.5339420121190487,0.08052564288436886,0.1548370697796544,0.8287683031716592,0.0959921545467186,-0.08261621868936776,0.1642316527020378,756.7032967032967,799.8168498168499,811.5018315018315,774.0293040293041,805.0549450549451,870.7326007326008,-0.390503,0.077576,0.841858,1.622467,-8.388977,3.558960,1,1,1,1,1,92.000000
2024-12-21 15:58:25.688,,,,,,,,,,,,,,,,,,,,,,,,,,,,,,,,,,,,,,,/muse/elements/blink
2024-12-21 15:58:25.900,1.434361702387341,0.8125262790063422,0.6516533406745513,0.5289372609005863,1.368774768227311,0.6911426329499574,0.6544154851717339,0.5581150660248588,0.9059443423717631,0.5877774150563151,0.4083970254662646,0.6570375976042926,1.020552162126368,0.5270281148607979,0.120117692890889,0.1548370697796544,0.8287683031716592,0.001214858380598668,-0.09542781387260015,0.1642316527020378,812.7106227106227,812.7106227106227,800.2197802197802,803.8461538461539,780.0732600732601,572.1611721611722,-0.310852,0.023376,0.872864,0.007477,-5.345917,-0.650482,1,2,1,1,2,92.000000
2024-12-21 15:58:26.400,1.434361702387341,0.7921611725462726,0.7801762780311411,0.5289372609005863,1.368774768227311,0.6475690418691534,0.7679383681994734,0.5581150660248588,0.9059443423717631,0.5924440678005313,0.4083970254662646,0.6570375976042926,1.020552162126368,0.5647141424788706,0.1603723275342654,0.1548370697796544,0.8287683031716592,-0.08939273420596186,-0.02186731831030387,0.1642316527020378,783.6996336996338,797.3992673992674,805.4578754578755,803.8461538461539,903.7728937728938,1030.695970695971,-0.250610,0.173035,0.866699,6.751556,0.246735,6.011353,1,2,1,1,2,92.000000
2024-12-21 15:58:26.899,1.434361702387341,0.8312272404849095,0.8261841314297065,0.5289372609005863,1.368774768227311,0.5323987843552191,0.7633974711562344,0.5581150660248588,0.9059443423717631,0.7232956803872016,0.441937504135838,0.6570375976042926,1.020552162126368,0.5230730885358822,0.1511649963017032,0.1548370697796544,0.8287683031716592,-0.1504901889078856,-0.1750265675352142,0.1642316527020378,852.1978021978023,797.3992673992674,786.9230769230769,838.901098901099,734.9450549450549,637.032967032967,-0.411072,0.050598,1.055054,1.330872,1.637421,2.691650,1,2,1,1,2,92.000000
2024-12-21 15:58:26.934,,,,,,,,,,,,,,,,,,,,,,,,,,,,,,,,,,,,,,,/muse/elements/blink
2024-12-21 15:58:27.400,1.434361702387341,0.7608520481188999,0.8838832851023232,0.5289372609005863,1.368774768227311,0.5002531381603589,0.497909496770948,0.5581150660248588,0.9059443423717631,0.8022605299139202,0.3943176257910815,0.6570375976042926,1.020552162126368,0.4260827750148992,-0.1791426092545227,0.1548370697796544,0.8287683031716592,0.01126672935059622,-0.7339602098826008,0.1642316527020378,828.4249084249085,802.6373626373627,799.8168498168499,801.8315018315019,774.8351648351648,608.021978021978,-0.364868,-0.011536,0.828796,3.349609,1.973877,-1.166382,1,2,1,1,2,92.000000
2024-12-21 15:58:27.906,1.434361702387341,0.7882303921910135,0.8294308001015059,0.5289372609005863,1.368774768227311,0.6472383042726553,0.4304135581621907,0.5581150660248588,0.9059443423717631,0.7953620306579076,0.3943176257910815,0.6570375976042926,1.020552162126368,0.3146298258713206,-0.163301413637827,0.1548370697796544,0.8287683031716592,0.05286586166262607,-0.7180394623366315,0.1642316527020378,781.2820512820513,789.7435897435897,798.6080586080586,791.7582417582418,834.8717948717949,739.7802197802198,-0.336304,0.107117,0.919189,-1.697235,-4.336548,-3.185120,1,2,1,1,2,92.000000
2024-12-21 15:58:28.399,1.434361702387341,0.6935191499595793,0.7209914880038367,0.5289372609005863,1.368774768227311,0.7049510745669461,0.393267551647198,0.5581150660248588,0.9059443423717631,0.6847430094042207,0.2996532466805942,0.6570375976042926,1.020552162126368,0.3074434381757491,-0.1482520487085059,0.1548370697796544,0.8287683031716592,0.05100449467244086,-0.5302257814504207,0.1642316527020378,738.1684981684982,804.6520146520147,821.1721611721612,724.4688644688645,736.959706959707,472.2344322344322,-0.383179,0.072449,1.218994,-1.988831,1.831818,8.441315,1,2,1,1,2,92.000000
2024-12-21 15:58:28.507,,,,,,,,,,,,,,,,,,,,,,,,,,,,,,,,,,,,,,,/muse/elements/blink
2024-12-21 15:58:28.900,1.434361702387341,0.7757354596645705,0.8848604172330534,0.5289372609005863,1.368774768227311,0.66806756076758,0.2049582382851139,0.5581150660248588,0.9059443423717631,0.6418220001027974,0.09920257415475621,0.6570375976042926,1.020552162126368,0.3439943480846842,-0.2089969217008093,0.1548370697796544,0.8287683031716592,0.05074404946229676,-0.2364058745522167,0.1642316527020378,813.919413919414,806.6666666666667,799.4139194139194,809.4871794871796,815.1282051282052,673.6996336996338,-0.284058,-0.098877,0.931213,-2.302856,-22.385559,-9.704895,1,2,1,1,2,92.000000
2024-12-21 15:58:29.400,1.434361702387341,0.7125879771308861,0.8848604172330534,0.5289372609005863,1.368774768227311,0.5646792441752083,0.2049582382851139,0.5581150660248588,0.9059443423717631,0.6741773202742865,0.09920257415475621,0.6570375976042926,1.020552162126368,0.4432528127800218,-0.2089969217008093,0.1548370697796544,0.8287683031716592,0.1164196579644854,-0.2364058745522167,0.1642316527020378,809.0842490842491,806.6666666666667,804.2490842490843,817.5457875457876,791.7582417582418,724.8717948717949,-0.411743,0.000183,0.725159,-0.276642,2.519684,-6.833801,1,2,1,1,2,92.000000
2024-12-21 15:58:29.730,,,,,,,,,,,,,,,,,,,,,,,,,,,,,,,,,,,,,,,/muse/elements/blink
2024-12-21 15:58:29.900,1.434361702387341,0.6322331918158298,0.8938828555076789,0.5289372609005863,1.368774768227311,0.5526530944346927,0.2005124298009516,0.5581150660248588,0.9059443423717631,0.7281495267917953,0.3308919360776446,0.6570375976042926,1.020552162126368,0.47608226555254,-0.1890823695579441,0.1548370697796544,0.8287683031716592,0.1738362912288443,-0.1669396069163264,0.1642316527020378,810.6959706959707,817.1428571428571,793.3699633699634,815.5311355311355,960.1831501831502,1018.205128205128,-0.432922,0.077515,0.687317,6.340332,26.191254,10.250702,1,2,1,1,2,92.000000
2024-12-21 15:58:30.400,1.434361702387341,0.5753601214604667,0.3470520161898746,0.5289372609005863,1.368774768227311,0.4992665635763571,0.08307927412149675,0.5581150660248588,0.9059443423717631,0.798954391545465,0.5067100302141012,0.6570375976042926,1.020552162126368,0.4785536740128769,-0.06619947725134655,0.1548370697796544,0.8287683031716592,0.2530022440277238,-0.09984180151698843,0.1642316527020378,718.021978021978,791.7582417582418,782.893772893773,785.7142857142858,770.8058608058608,786.5201465201466,-0.328369,0.107605,0.771790,-3.955231,-3.626251,-0.097198,1,2,1,1,2,92.000000
2024-12-21 15:58:30.900,1.434361702387341,0.6583339768781634,0.5097254110778076,0.5289372609005863,1.368774768227311,0.5798839972710185,0.1310533829910145,0.5581150660248588,0.9059443423717631,0.8962039764707407,0.5822455912676853,0.6570375976042926,1.020552162126368,0.4081498716809239,-0.02790672369401712,0.1548370697796544,0.8287683031716592,0.3089661941960774,-0.06953749651435841,0.1642316527020378,747.8388278388279,788.9377289377289,799.0109890109891,801.8315018315019,799.0109890109891,809.0842490842491,-0.297607,-0.036987,0.976990,-0.822449,-8.501129,3.977661,1,2,1,1,2,92.000000
2024-12-21 15:58:31.400,1.434361702387341,0.7905152424009234,0.6236938657145398,0.740846418697869,1.368774768227311,0.5712877144154388,0.3514625655756977,0.5989007603767701,0.9059443423717631,0.8626189531189555,0.6327839211432792,0.6699839520337015,1.020552162126368,0.4502123836793862,0.189698871401002,0.7924233922834092,0.8287683031716592,0.3387898551340705,-0.006973012177051745,0.4412371512300693,811.9047619047619,807.8754578754579,808.2783882783883,807.0695970695971,893.2967032967033,864.2857142857143,-0.358704,0.017029,0.959351,13.757324,-2.145844,0.702820,1,1,1,1,1,92.000000
2024-12-21 15:58:31.900,1.083010980252562,0.8678645454512851,0.860985116560394,0.740846418697869,1.714222908270764,0.6637988299811495,0.5305330198907553,0.5989007603767701,1.313315205089824,0.8875364578386561,0.6266858302611247,0.6699839520337015,1.224120314930232,0.4693849243510221,0.2691206509525077,0.7924233922834092,1.098890204745063,0.2765899230759224,0.01839624138455622,0.4412371512300693,836.4835164835165,807.0695970695971,781.2820512820513,843.3333333333334,863.4798534798535,763.5531135531136,-0.392517,-0.071106,0.971802,-0.448608,-2.474823,3.327179,1,1,1,1,1,92.000000
2024-12-21 15:58:31.903,,,,,,,,,,,,,,,,,,,,,,,,,,,,,,,,,,,,,,,/muse/elements/blink
2024-12-21 15:58:32.400,1.083010980252562,0.793991722102951,0.9346197669094705,0.740846418697869,1.714222908270764,0.5662753579243698,0.6445899863995931,0.5989007603767701,1.313315205089824,0.7089870806693839,0.5384409977038501,0.6699839520337015,1.224120314930232,0.3726256513056648,0.3606625616394358,0.7924233922834092,1.098890204745063,0.08362710260073178,0.03496635270327429,0.4412371512300693,780.0732600732601,798.6080586080586,801.8315018315019,803.4432234432235,776.0439560439561,981.941391941392,-0.298584,0.053711,0.831177,-1.614990,2.377625,-3.723450,1,1,1,1,1,92.000000
2024-12-21 15:58:32.900,1.083010980252562,0.5991557613697402,1.061142971546484,0.8207739532953277,1.714222908270764,0.3650208597403499,0.6672702218623189,0.6012375043895062,1.313315205089824,0.6040951207843929,0.4371736119765816,0.6596261356017831,1.224120314930232,0.1261214528582116,0.2640452916490078,0.8388972915594856,1.098890204745063,-0.1540762788813464,-0.008766472980230745,0.4547212021745333,777.2527472527473,805.8608058608058,806.2637362637363,794.5787545787546,789.7435897435897,813.919413919414,-0.260864,-0.084290,1.115173,1.353302,-4.089813,-5.016937,1,1,1,1,1,92.000000
2024-12-21 15:58:33.399,1.083010980252562,0.09748924408240323,-0.07323462512858023,0.6684949780799683,1.714222908270764,-0.2002122488834969,-0.2677382157949512,0.5957240909241966,1.313315205089824,0.08002061600561435,0.1142577207819349,0.5495184993734092,1.224120314930232,-0.127618692594554,-0.05115448274376681,0.3372816983467594,1.098890204745063,-0.3074756225737101,-0.587114296032139,0.02923671513960248,780.0732600732601,799.4139194139194,807.4725274725275,808.2783882783883,794.5787545787546,427.5091575091575,-0.438171,0.059448,1.302307,3.678589,6.519775,-2.758942,1,1,1,1,1,92.000000
2024-12-21 15:58:33.909,1.083010980252562,0.1217742911359974,-0.06405303901821754,0.8844790014270426,1.714222908270764,-0.3316165736398503,-0.2172383478809405,0.6262706040255485,1.313315205089824,0.1503525390699033,0.163238094760617,0.6639026655762229,1.224120314930232,-0.1057709692169692,-0.01752826294226773,0.4269275276986962,1.098890204745063,-0.4766380696165768,-0.4897708141866799,0.09549000589884067,786.5201465201466,800.2197802197802,804.6520146520147,795.3846153846154,658.7912087912088,512.1245421245421,-0.287964,0.169617,0.938599,-0.067291,-8.897400,6.871185,1,1,1,1,1,92.000000
2024-12-21 15:58:34.248,,,,,,,,,,,,,,,,,,,,,,,,,,,,,,,,,,,,,,,/muse/elements/blink
2024-12-21 15:58:34.400,1.083010980252562,0.05800709923197999,0.4641640443057109,0.8844790014270426,1.714222908270764,-0.2393844369890517,0.1769991620436435,0.6262706040255485,1.313315205089824,0.1528980292742722,0.324098971001474,0.6639026655762229,1.224120314930232,-0.0297248129439435,-0.04698934264242736,0.4269275276986962,1.098890204745063,-0.4630401995216702,-0.4483056061973686,0.09549000589884067,776.0439560439561,805.8608058608058,805.4578754578755,808.6813186813187,894.5054945054945,806.2637362637363,-0.421204,-0.018433,0.745605,-1.084137,5.906677,-0.508423,1,1,1,1,1,92.000000
2024-12-21 15:58:34.900,1.083010980252562,0.09565984661313617,0.6008492983843916,0.9877704968656171,1.714222908270764,-0.1256023005262288,0.306598266653449,0.6766435879042556,1.313315205089824,0.09998997592744241,0.2862913827992666,0.6549234657595424,1.224120314930232,-0.01876451968454615,-0.03553652032708159,0.4753773418622042,1.098890204745063,-0.5114351906096141,-0.3931345591176131,0.1348125562652296,787.7289377289378,805.8608058608058,815.5311355311355,810.2930402930403,896.9230769230769,1108.461538461539,-0.317017,0.141113,0.838074,2.459869,2.811279,1.248627,1,1,1,1,1,92.000000
2024-12-21 15:58:35.400,1.083010980252562,0.2444696152994437,0.7392665351044163,0.9863335121755642,1.714222908270764,-0.06360826977841906,0.3414971076832223,0.5776992718762081,1.313315205089824,0.1789483644436684,0.3728691677733525,0.5615856184891438,1.224120314930232,-0.03573405953931623,-0.1401216183351969,0.4862700058161813,1.098890204745063,-0.4030978535836514,-0.4433490164235769,0.1387073946637228,846.1538461538462,805.8608058608058,807.8754578754579,800.2197802197802,822.7838827838829,613.6630036630037,-0.303894,0.086182,1.057312,0.583191,-4.710388,3.327179,1,1,1,1,1,92.000000
2024-12-21 15:58:35.560,,,,,,,,,,,,,,,,,,,,,,,,,,,,,,,,,,,,,,,/muse/elements/blink
2024-12-21 15:58:35.900,1.083010980252562,0.3021841645273791,0.9405581670104529,0.9863335121755642,1.714222908270764,0.1226498952436529,0.4728137604165319,0.5776992718762081,1.313315205089824,0.173792688455847,0.291113152363297,0.5615856184891438,1.224120314930232,-0.07024829225626308,-0.2069825560282249,0.4862700058161813,1.098890204745063,-0.3118496478935623,-0.677510972143453,0.1387073946637228,817.948717948718,802.2344322344322,804.2490842490843,806.2637362637363,747.4358974358975,615.6776556776557,-0.324341,-0.022583,0.896118,1.308441,2.370148,-1.009369,1,1,1,1,1,92.000000
2024-12-21 15:58:36.400,1.083010980252562,0.2684379349529714,0.9019470890854373,0.9863335121755642,1.714222908270764,0.05144708418658764,0.4253061242406893,0.5776992718762081,1.313315205089824,0.1560340154177399,0.291113152363297,0.5615856184891438,1.224120314930232,-0.02892182880008811,-0.2152323455105294,0.4862700058161813,1.098890204745063,-0.2990375411008864,-0.6043288730078101,0.1387073946637228,776.0439560439561,793.3699633699634,803.040293040293,793.3699633699634,634.2124542124542,589.8901098901099,-0.329346,0.069580,0.863464,1.622467,-5.278625,-4.732819,1,1,1,1,1,92.000000
2024-12-21 15:58:36.906,1.083010980252562,0.02546768659962101,0.7851789456758241,0.9863335121755642,1.714222908270764,0.01372744305484801,0.4093391289647428,0.5776992718762081,1.313315205089824,0.1113229181123638,0.2123468977847263,0.5615856184891438,1.224120314930232,-0.006154239391950133,-0.1653570870428873,0.4862700058161813,1.098890204745063,-0.4081455629663048,-0.3843635647476323,0.1387073946637228,819.96336996337,792.967032967033,800.6227106227107,837.2893772893773,848.1684981684982,1052.857142857143,-0.267334,0.016296,0.853455,-2.018738,-5.203857,2.108459,1,2,1,1,2,92.000000
2024-12-21 15:58:37.051,,,,,,,,,,,,,,,,,,,,,,,,,,,,,,,,,,,,,,,/muse/elements/blink
2024-12-21 15:58:37.399,1.083010980252562,0.01467183466398072,0.7708403108023827,0.9863335121755642,1.714222908270764,-0.1552888909961512,0.4589288195355683,0.5776992718762081,1.313315205089824,-0.0411691571490394,0.1897354046609615,0.5615856184891438,1.224120314930232,0.0006373867083844857,-0.1001278503627675,0.4862700058161813,1.098890204745063,-0.4281439392659451,-0.2880878842938403,0.1387073946637228,791.7582417582418,803.4432234432235,801.025641025641,782.893772893773,853.4065934065934,698.2783882783883,-0.347595,-0.034546,0.908447,-0.508423,-0.590668,-2.781372,1,2,1,1,2,92.000000
2024-12-21 15:58:37.900,1.083010980252562,0.20251428551709,1.033900263149331,0.9863335121755642,1.714222908270764,-0.04322428214017029,0.6602014913246219,0.5776992718762081,1.313315205089824,-0.04629431600402314,0.2531425974060557,0.5615856184891438,1.224120314930232,-0.065007755368045,-0.02526653988780881,0.4862700058161813,1.098890204745063,-0.4301269236929859,-0.3088971465049578,0.1387073946637228,811.0989010989011,809.8901098901099,813.5164835164835,788.9377289377289,793.3699633699634,629.7802197802198,-0.398376,0.053223,0.873352,2.504730,-2.071075,-1.517792,1,2,1,1,2,92.000000
2024-12-21 15:58:38.274,,,,,,,,,,,,,,,,,,,,,,,,,,,,,,,,,,,,,,,/muse/elements/blink
2024-12-21 15:58:38.400,1.083010980252562,0.3598107053166842,1.165750178416895,0.9863335121755642,1.714222908270764,0.1507766010818312,0.774412710060176,0.5776992718762081,1.313315205089824,0.03201145266374385,0.2777696601575635,0.5615856184891438,1.224120314930232,-0.1029252947764247,0.1255415484214686,0.4862700058161813,1.098890204745063,-0.379183117104813,-0.2328834914999204,0.1387073946637228,822.3809523809524,798.2051282051282,794.5787545787546,811.0989010989011,760.7326007326008,608.021978021978,-0.273987,-0.026062,0.902466,2.788849,-9.211426,2.699127,1,2,1,1,2,92.000000
2024-12-21 15:58:38.900,1.083010980252562,0.9583275978874486,1.220971859724793,0.9863335121755642,1.714222908270764,0.6160987348402063,0.794617502219305,0.5776992718762081,1.313315205089824,0.2036178359909788,0.2087913282585728,0.5615856184891438,1.224120314930232,-0.07518254536058175,0.2523092313349254,0.4862700058161813,1.098890204745063,-0.4313617420795791,-0.1557185880206984,0.1387073946637228,799.8168498168499,812.3076923076924,794.5787545787546,811.5018315018315,791.3553113553114,888.8644688644689,-0.357727,0.053284,0.988831,-2.796326,12.897491,-2.482300,1,2,1,1,2,92.000000
2024-12-21 15:58:39.399,1.083010980252562,0.9865064085004266,0.3211859984959087,0.9863335121755642,1.714222908270764,0.6140467515099357,0.075669650398159,0.5776992718762081,1.313315205089824,0.3811941103534123,0.3590120749831591,0.5615856184891438,1.224120314930232,-0.08816627146072525,0.07746262394898311,0.4862700058161813,1.098890204745063,-0.4469987683563963,-0.1868087310650666,0.1387073946637228,868.3150183150184,846.5567765567765,762.3443223443223,806.6666666666667,718.8278388278388,705.1282051282052,-0.346619,0.077209,0.923889,-8.426361,-5.824432,6.093597,1,2,1,1,2,92.000000
2024-12-21 15:58:39.899,1.083010980252562,1.159009608020505,0.7472096799756315,0.9863335121755642,1.714222908270764,0.7900598357354855,0.3444575007866212,0.5776992718762081,1.313315205089824,0.5287949798114452,0.3680698423692685,0.5615856184891438,1.224120314930232,-0.05578643436518212,0.1660978251660807,0.4862700058161813,1.098890204745063,-0.3606505126593486,-0.07915656408759079,0.1387073946637228,595.934065934066,777.6556776556777,878.7912087912089,678.9377289377289,857.032967032967,773.2234432234433,-0.369141,0.009094,0.866943,-0.149536,-3.476715,-2.250519,1,2,1,1,2,92.000000
2024-12-21 15:58:40.111,,,,,,,,,,,,,,,,,,,,,,,,,,,,,,,,,,,,,,,/muse/elements/blink
2024-12-21 15:58:40.399,1.083010980252562,1.116110723437332,0.7472096799756315,0.9863335121755642,1.714222908270764,0.701775531215119,0.3444575007866212,0.5776992718762081,1.313315205089824,0.5519113605343886,0.3680698423692685,0.5615856184891438,1.224120314930232,-0.1121750489001978,0.1660978251660807,0.4862700058161813,1.098890204745063,-0.3389975178958369,-0.07915656408759079,0.1387073946637228,756.7032967032967,805.0549450549451,811.9047619047619,807.0695970695971,863.0769230769231,829.6336996336996,-0.341248,0.126892,0.928650,-2.504730,-5.615082,1.024323,1,2,1,1,2,92.000000
2024-12-21 15:58:40.899,1.083010980252562,1.179195091597328,0.9091679909466389,0.9863335121755642,1.714222908270764,0.7549005911640394,0.4915802154961759,0.5776992718762081,1.313315205089824,0.5458566624175634,0.2403280013273122,0.5615856184891438,1.224120314930232,0.07652346688326458,0.3258798047352313,0.4862700058161813,1.098890204745063,-0.2112007755900686,0.06141829447824944,0.1387073946637228,816.7399267399268,807.0695970695971,788.5347985347986,799.4139194139194,812.3076923076924,367.8754578754579,-0.320435,-0.018433,0.922119,-5.712280,9.383392,0.822449,1,2,1,1,2,92.000000
2024-12-21 15:58:41.314,,,,,,,,,,,,,,,,,,,,,,,,,,,,,,,,,,,,,,,/muse/elements/blink
2024-12-21 15:58:41.399,1.083010980252562,0.8639680103995103,0.9091679909466389,0.9863335121755642,1.714222908270764,0.2968635855491853,0.4915802154961759,0.5776992718762081,1.313315205089824,0.5013128854273268,0.2403280013273122,0.5615856184891438,1.224120314930232,0.1430880408182153,0.3258798047352313,0.4862700058161813,1.098890204745063,-0.2514551710791265,0.06141829447824944,0.1387073946637228,860.2564102564103,799.4139194139194,794.981684981685,826.007326007326,686.996336996337,464.1758241758242,-0.368774,0.035583,0.978882,-0.074768,-7.678680,1.114044,1,2,1,1,2,92.000000
2024-12-21 15:58:41.899,1.083010980252562,0.7567616188013973,0.9091679909466389,0.9863335121755642,1.714222908270764,0.09701421443173928,0.4915802154961759,0.5776992718762081,1.313315205089824,0.313213446481347,0.2403280013273122,0.5615856184891438,1.224120314930232,0.1430498805732947,0.3258798047352313,0.4862700058161813,1.098890204745063,-0.1233706704926147,0.06141829447824944,0.1387073946637228,800.2197802197802,799.4139194139194,799.0109890109891,811.5018315018315,830.8424908424909,960.1831501831502,-0.380127,0.025513,0.806580,-3.155212,-3.185120,2.452393,1,2,1,1,2,92.000000
2024-12-21 15:58:42.399,1.083010980252562,0.5424913388154436,0.9091679909466389,0.9863335121755642,1.714222908270764,0.06851275803448453,0.4915802154961759,0.5776992718762081,1.313315205089824,0.3354734723257207,0.2403280013273122,0.5615856184891438,1.224120314930232,0.07650867308292721,0.3258798047352313,0.4862700058161813,1.098890204745063,-0.1398327961863899,0.06141829447824944,0.1387073946637228,781.6849816849817,794.5787545787546,798.6080586080586,797.8021978021978,840.1098901098901,705.1282051282052,-0.306580,0.009399,0.926147,6.325378,-7.364655,3.529053,1,2,1,1,2,92.000000
2024-12-21 15:58:42.899,1.083010980252562,0.5320555426191907,0.2089652429847127,0.9863335121755642,1.714222908270764,0.1221440651033099,-0.01383550685157755,0.5776992718762081,1.313315205089824,0.331817506729187,-0.1243274888677665,0.5615856184891438,1.224120314930232,0.06732815749845146,-0.05751333467624296,0.4862700058161813,1.098890204745063,-0.1876081009279839,-0.5909873797112238,0.1387073946637228,696.2637362637363,811.9047619047619,832.0512820512821,693.8461538461538,803.8461538461539,581.8315018315019,-0.352417,0.034851,0.917908,-3.529053,19.992981,-4.673004,1,2,1,1,2,92.000000
2024-12-21 15:58:43.041,,,,,,,,,,,,,,,,,,,,,,,,,,,,,,,,,,,,,,,/muse/elements/blink
2024-12-21 15:58:43.400,1.083010980252562,0.395636683808028,0.3109038179511541,0.9863335121755642,1.714222908270764,0.05232997489686525,-0.02721864557952031,0.5776992718762081,1.313315205089824,0.2493526077202958,-0.04973798931828115,0.5615856184891438,1.224120314930232,0.05760143273791601,-0.1015389319033961,0.4862700058161813,1.098890204745063,-0.4304916429539659,-0.6195480996414363,0.1387073946637228,809.4871794871796,800.2197802197802,801.4285714285714,801.4285714285714,931.5750915750916,818.3516483516484,-0.387451,0.040100,0.823669,0.657959,-5.517883,2.115936,1,2,1,1,2,92.000000
2024-12-21 15:58:43.900,1.083010980252562,0.5597892613143364,0.3123905969125708,0.9863335121755642,1.714222908270764,0.02941108719114777,-0.04384564103146529,0.5776992718762081,1.313315205089824,0.1675082059270201,-0.04973798931828115,0.5615856184891438,1.224120314930232,0.05126951021436334,-0.1062532188569616,0.4862700058161813,1.098890204745063,-0.5420221731990039,-0.6249489747871998,0.1387073946637228,788.1318681318681,804.6520146520147,803.040293040293,811.0989010989011,822.3809523809524,699.8901098901099,-0.378479,-0.011963,0.850586,1.532745,-6.355286,3.080444,1,2,1,1,2,92.000000
2024-12-21 15:58:44.403,1.083010980252562,0.5262609976851945,0.3355635526630165,0.9863335121755642,1.714222908270764,-0.08582787138261384,0.05560363387336067,0.5776992718762081,1.313315205089824,0.09999959704807064,-0.0746666642656299,0.5615856184891438,1.224120314930232,-0.01695264090818524,-0.361374924675837,0.4862700058161813,1.098890204745063,-0.5501996649350336,-0.5992873449415279,0.1387073946637228,819.96336996337,800.2197802197802,794.981684981685,850.5860805860806,773.6263736263736,1077.435897435897,-0.364075,0.080566,0.853394,-0.837402,7.850647,1.173859,1,2,1,1,2,92.000000
2024-12-21 15:58:44.439,,,,,,,,,,,,,,,,,,,,,,,,,,,,,,,,,,,,,,,/muse/elements/blink
2024-12-21 15:58:44.900,1.083010980252562,0.4123910806738914,1.212157651522216,0.9863335121755642,1.714222908270764,-0.01715837542154426,0.7617600652032487,0.5776992718762081,1.313315205089824,0.120839500220878,-0.2458852337454775,0.5615856184891438,1.224120314930232,-0.1120161959424315,-0.2307966629021738,0.4862700058161813,1.098890204745063,-0.4957837876568468,-0.4363253201677462,0.1387073946637228,797.8021978021978,799.4139194139194,797.8021978021978,797.3992673992674,826.4102564102565,673.2967032967033,-0.352844,0.057739,0.889099,-0.687866,-6.325378,3.648682,1,2,1,1,2,92.000000
2024-12-21 15:58:45.399,1.083010980252562,-0.08215385031271688,1.212157651522216,0.9863335121755642,1.714222908270764,-0.1523696372983354,0.7617600652032487,0.5776992718762081,1.313315205089824,0.1315025323098963,-0.2458852337454775,0.5615856184891438,1.224120314930232,-0.1765628531385584,-0.2307966629021738,0.4862700058161813,1.098890204745063,-0.4430125103335339,-0.4363253201677462,0.1387073946637228,788.5347985347986,798.6080586080586,799.4139194139194,792.1611721611722,904.1758241758242,799.8168498168499,-0.383240,0.017456,0.865540,5.480499,1.263580,2.586975,1,2,1,1,2,92.000000
2024-12-21 15:58:45.900,1.083010980252562,-0.1029092412933656,1.106720377164351,0.9863335121755642,1.714222908270764,-0.06582207708939483,0.6722581877555287,0.5776992718762081,1.313315205089824,0.2240487138590337,0.08946702796086928,0.5615856184891438,1.224120314930232,-0.097588749945031,-0.1167517361271385,0.4862700058161813,1.098890204745063,-0.386128151970236,-0.4586551946744337,0.1387073946637228,805.8608058608058,798.2051282051282,803.8461538461539,791.7582417582418,818.7545787545788,580.6227106227107,-0.337341,0.128662,0.955505,1.540222,-11.611481,-2.714081,1,2,1,1,2,92.000000
2024-12-21 15:58:46.171,,,,,,,,,,,,,,,,,,,,,,,,,,,,,,,,,,,,,,,/muse/elements/blink
2024-12-21 15:58:46.399,0.7308527382784625,-0.09593761091937909,0.5682947038981669,0.9863335121755642,0.8330790694836804,-0.07296294602648065,0.3430658810843012,0.5776992718762081,1.001788401488725,0.09624259957079466,0.2481702536073468,0.5615856184891438,0.9803353034823576,-0.05701709097114519,-0.1238943270748395,0.4862700058161813,0.5763886514676485,-0.3091830776105434,-0.5672812647317464,0.1387073946637228,836.8864468864469,799.8168498168499,794.5787545787546,812.7106227106227,663.2234432234433,236.1172161172161,-0.449341,-0.017212,1.208862,0.942078,4.299164,3.379517,1,1,1,1,1,92.000000
2024-12-21 15:58:46.905,0.7308527382784625,0.1412547648797619,0.5682947038981669,0.9863335121755642,0.8330790694836804,0.1599163181896356,0.3430658810843012,0.5776992718762081,1.001788401488725,0.1490727684159004,0.2481702536073468,0.5615856184891438,0.9803353034823576,0.04213012854084284,-0.1238943270748395,0.4862700058161813,0.5763886514676485,-0.2421344697983296,-0.5672812647317464,0.1387073946637228,803.4432234432235,817.5457875457876,782.0879120879121,742.6007326007326,826.8131868131868,716.8131868131868,-0.332458,0.001709,1.046631,5.712280,-4.403839,2.026215,1,1,1,1,1,92.000000
2024-12-21 15:58:47.399,0.7308527382784625,0.2117844594002042,0.8710368281273956,0.9863335121755642,0.8330790694836804,0.1464040912903204,0.6033686115350479,0.5776992718762081,1.001788401488725,0.3625096119054394,0.1911237992301887,0.5615856184891438,0.9803353034823576,0.1295100022866122,-0.04867202702188823,0.4862700058161813,0.5763886514676485,-0.1332518246918216,0.05447107047369464,0.1387073946637228,761.5384615384615,790.5494505494506,803.040293040293,774.4322344322345,678.9377289377289,541.941391941392,-0.396362,0.075439,0.865173,-0.583191,-7.820740,-2.848663,1,1,1,1,1,92.000000
2024-12-21 15:58:47.512,,,,,,,,,,,,,,,,,,,,,,,,,,,,,,,,,,,,,,,/muse/elements/blink
2024-12-21 15:58:47.899,0.7308527382784625,0.3316199110246634,0.9647295674969009,0.9863335121755642,0.8330790694836804,0.1398762117728673,0.6840682462865743,0.5776992718762081,1.001788401488725,0.3698105222753719,0.1797789880361746,0.5615856184891438,0.9803353034823576,0.1983653310320335,-0.0224989381447783,0.4862700058161813,0.5763886514676485,-0.06278470095685383,0.1346827179304576,0.1387073946637228,823.1868131868132,823.992673992674,795.3846153846154,790.1465201465202,904.5787545787546,953.7362637362637,-0.276855,-0.048889,0.912537,6.026306,-13.398438,1.540222,1,1,1,1,1,92.000000
2024-12-21 15:58:48.101,,,,,,,,,,,,,,,,,,,,,,,,,,,,,,,,,,,,,,,/muse/elements/jaw_clench
2024-12-21 15:58:48.399,0.7308527382784625,0.3376657967417648,0.9647295674969009,0.9863335121755642,0.8330790694836804,-0.1106129199752498,0.6840682462865743,0.5776992718762081,1.001788401488725,0.3563498528055138,0.1797789880361746,0.5615856184891438,0.9803353034823576,0.2093917716629574,-0.0224989381447783,0.4862700058161813,0.5763886514676485,-0.05296126919762543,0.1346827179304576,0.1387073946637228,698.6813186813187,825.6043956043957,791.7582417582418,785.7142857142858,819.5604395604396,399.7069597069597,-0.496460,0.092346,1.296997,-0.942078,-3.596344,7.387085,1,1,1,1,1,92.000000
2024-12-21 15:58:48.899,0.7308527382784625,0.5061477821361855,0.7692101133190814,0.9863335121755642,0.8330790694836804,-0.04036250159159705,0.3217318842420072,0.5776992718762081,1.001788401488725,0.3182503074876308,0.2183942530235282,0.5615856184891438,0.9803353034823576,0.2185602634933132,0.4744484394427984,0.4862700058161813,0.5763886514676485,0.0180837717138063,0.6180990150361851,0.1387073946637228,785.3113553113553,809.0842490842491,798.2051282051282,812.7106227106227,776.0439560439561,682.967032967033,-0.321655,0.072144,0.866028,-0.366364,-5.211334,-5.121613,1,2,1,1,2,92.000000
2024-12-21 15:58:49.400,0.7308527382784625,0.6013458265066804,0.9832698509508355,0.9863335121755642,0.8330790694836804,-0.08985380478949406,0.3241782208675278,0.5776992718762081,1.001788401488725,0.1360325358318018,0.4614015854826417,0.5615856184891438,0.9803353034823576,0.09469374171826553,0.3769481392812064,0.4862700058161813,0.5763886514676485,-0.06048386451310796,0.4330680201604496,0.1387073946637228,778.4615384615385,812.3076923076924,794.1758241758242,812.7106227106227,696.6666666666667,584.2490842490843,-0.314392,0.028076,0.856812,32.307281,-5.129089,-57.160187,1,2,1,1,2,92.000000
2024-12-21 15:58:49.899,0.7308527382784625,0.6013458265066804,0.8742767679424803,1.142812983222693,0.8330790694836804,-0.08985380478949406,0.2317353294241381,0.8774715570999038,1.001788401488725,0.1360325358318018,0.464728067817738,0.9521268708951399,0.9803353034823576,0.09469374171826553,0.2723194979712894,0.7627382779158672,0.5763886514676485,-0.06048386451310796,0.1811068619020191,0.552056739377809,877.1794871794872,810.6959706959707,797.8021978021978,971.4652014652015,735.3479853479854,596.3369963369963,-0.333069,0.203491,0.959900,-7.372131,-1.891632,-22.654724,1,1,1,1,1,92.000000
2024-12-21 15:58:50.091,,,,,,,,,,,,,,,,,,,,,,,,,,,,,,,,,,,,,,,/muse/elements/blink
2024-12-21 15:58:50.399,0.7308527382784625,0.9138650878929103,0.9174391332754871,1.142812983222693,0.8330790694836804,0.8238816885423923,0.4544651952958294,0.8774715570999038,1.001788401488725,0.4531461727929987,0.5855766949552055,0.9521268708951399,0.9803353034823576,0.05039221058075222,0.3212820380422692,0.7627382779158672,0.5763886514676485,0.07034712728479851,-0.05347864020771276,0.552056739377809,817.5457875457876,799.0109890109891,804.6520146520147,800.6227106227107,741.7948717948718,513.3333333333334,-0.383484,0.230469,0.993103,12.546082,-0.852356,-10.332947,1,1,1,1,1,92.000000
2024-12-21 15:58:50.899,0.7308527382784625,0.9043312455725186,0.8495363006301681,1.089457015317514,0.8330790694836804,0.7500114808479207,0.414973961624248,0.7596599471815506,1.001788401488725,0.6645459278199972,0.5368163558890207,0.7711016322074635,0.9803353034823576,0.1421558261519622,0.3451161262075093,0.7555757758193428,0.5763886514676485,0.1904308134117404,-0.05410050618616746,0.5905797940413852,837.6923076923077,786.9230769230769,790.1465201465202,821.5750915750916,744.6153846153846,648.3150183150183,-0.299927,0.007812,0.875549,16.232147,0.029907,-25.914612,1,1,1,1,1,92.000000
2024-12-21 15:58:50.906,,,,,,,,,,,,,,,,,,,,,,,,,,,,,,,,,,,,,,,/muse/elements/blink
2024-12-21 15:58:51.408,0.7308527382784625,0.9496072074245713,1.176484097576447,1.052757570756916,0.8330790694836804,0.7387888051308876,0.7172301722282997,0.712427671065292,1.001788401488725,0.6975596830220898,0.7064044386926981,0.6836579272444261,0.9803353034823576,0.157138481992793,0.4527308275452706,0.761506127044316,0.5763886514676485,0.1593367450006836,0.1401883214218731,0.5991849269917761,781.2820512820513,807.0695970695971,802.6373626373627,797.3992673992674,779.6703296703297,849.3772893772895,-0.394409,0.096069,0.864624,-17.219086,-4.015045,38.445740,1,1,1,1,1,92.000000
2024-12-21 15:58:51.907,0.7308527382784625,1.102138715254581,1.295559331311305,1.052757570756916,0.8330790694836804,0.6960551909010666,0.7588526362477893,0.712427671065292,1.001788401488725,0.6897426958157455,0.5963507769022338,0.6836579272444261,0.9803353034823576,0.2078602966018493,0.06269499653314652,0.761506127044316,0.5763886514676485,0.1752085031167332,-0.246000992905113,0.5991849269917761,816.3369963369963,753.0769230769231,835.6776556776557,859.4505494505495,991.2087912087912,1001.684981684982,-0.283691,-0.046082,0.919006,-24.105225,13.996582,61.930389,1,1,1,1,1,92.000000
2024-12-21 15:58:52.009,,,,,,,,,,,,,,,,,,,,,,,,,,,,,,,,,,,,,,,/muse/elements/blink
2024-12-21 15:58:52.399,0.7308527382784625,1.419108107354665,1.295559331311305,1.052757570756916,0.8330790694836804,0.7577636585006368,0.7588526362477893,0.712427671065292,1.001788401488725,0.640098533444529,0.5963507769022338,0.6836579272444261,0.9803353034823576,0.1786167297672082,0.06269499653314652,0.761506127044316,0.5763886514676485,-0.02513645160367178,-0.246000992905113,0.5991849269917761,793.3699633699634,794.981684981685,793.7728937728938,799.8168498168499,803.4432234432235,690.2197802197802,-0.343079,-0.024048,1.152588,-10.243225,-15.828400,-0.119629,1,1,1,1,1,92.000000
2024-12-21 15:58:52.899,0.7308527382784625,1.500716191092741,1.263961950874906,1.052757570756916,0.8330790694836804,0.7890656127452131,0.744986192963892,0.712427671065292,1.001788401488725,0.3619661997018612,0.5806333778320587,0.6836579272444261,0.9803353034823576,0.1202549766959168,0.03997561466427626,0.761506127044316,0.5763886514676485,-0.04580707954349544,-0.3059268026452839,0.5991849269917761,767.985347985348,794.981684981685,802.2344322344322,784.5054945054945,774.4322344322345,575.7875457875458,-0.414062,0.104187,0.898987,2.714081,-5.757141,6.101074,1,2,1,1,2,92.000000
2024-12-21 15:58:53.400,0.7308527382784625,1.390949122570338,0.9217456330831495,1.052757570756916,0.8330790694836804,0.7208903087205558,0.4264275838333336,0.712427671065292,1.001788401488725,0.4550338424969284,0.1109852180125634,0.6836579272444261,0.9803353034823576,0.1608533722846889,-0.03454878936605368,0.761506127044316,0.5763886514676485,-0.2338906887552887,-0.5726000846017548,0.5991849269917761,794.5787545787546,801.025641025641,796.1904761904763,802.2344322344322,766.3736263736264,574.5787545787546,-0.405334,0.068665,0.880554,-3.020630,1.951447,2.362671,1,2,1,1,2,92.000000
2024-12-21 15:58:53.904,0.7308527382784625,0.1666008994055267,0.4663303076893491,1.12045414102023,0.8330790694836804,0.2561882557450069,-0.003913173243380729,0.6829806128718586,1.001788401488725,0.3669801537823099,0.1314185210795884,0.5453722794794472,0.9803353034823576,0.2419480290616038,-0.1603604905405674,0.5814685669202789,0.5763886514676485,4.948619586065812e-05,-0.5944799341424126,0.2586297248681723,793.3699633699634,796.996336996337,802.6373626373627,790.952380952381,824.3956043956044,885.6410256410256,-0.265015,0.139099,0.807556,0.149536,-2.729034,-1.054230,1,1,1,1,1,92.000000
2024-12-21 15:58:54.044,,,,,,,,,,,,,,,,,,,,,,,,,,,,,,,,,,,,,,,/muse/elements/blink
2024-12-21 15:58:54.399,0.7308527382784625,0.4205926996016252,0.2982221212072257,1.12045414102023,0.8330790694836804,0.2635184995020466,0.01373089920190071,0.6829806128718586,1.001788401488725,0.3699349342197263,0.3662075693368969,0.5453722794794472,0.9803353034823576,0.2255909886037548,-0.06811027559544872,0.5814685669202789,0.5763886514676485,-0.04222702617572684,-0.5508611208919701,0.2586297248681723,803.8461538461539,801.025641025641,793.3699633699634,794.981684981685,873.5531135531136,760.3296703296703,-0.396973,0.043579,0.866760,-1.577606,0.366364,4.261780,1,1,1,1,1,92.000000
2024-12-21 15:58:54.549,,,,,,,,,,,,,,,,,,,,,,,,,,,,,,,,,,,,,,,/muse/elements/blink
2024-12-21 15:58:54.900,0.7308527382784625,0.481956877483288,0.1422008061758873,1.327534343879261,0.8330790694836804,0.189274847493111,0.01440426078115231,1.143863557880624,1.001788401488725,0.2634310874094464,0.3711905076481034,1.163680968699544,0.9803353034823576,0.2499394772193169,-0.08859715083457402,0.5991918421839397,0.5763886514676485,-0.05209112224854549,-0.5336027873156822,0.1925143394106618,817.1428571428571,815.5311355311355,794.1758241758242,813.5164835164835,788.1318681318681,651.941391941392,-0.359497,0.024170,0.815796,1.996307,-5.061798,-5.914154,1,1,1,1,1,92.000000
2024-12-21 15:58:55.321,,,,,,,,,,,,,,,,,,,,,,,,,,,,,,,,,,,,,,,/muse/elements/blink
2024-12-21 15:58:55.400,0.7308527382784625,0.9542687442766948,0.5898730329410906,1.290586846562338,0.8330790694836804,0.3865160581113925,0.4154725389662761,1.241419170539791,1.001788401488725,0.4067179437658354,0.3862583864230467,1.165817225629917,0.9803353034823576,0.2371865980142317,-0.02325618586783761,0.5394978732297147,0.5763886514676485,-0.1907894849491213,-0.5416156873158385,0.1967274992003691,851.3919413919414,798.6080586080586,805.0549450549451,846.959706959707,805.8608058608058,691.8315018315019,-0.395691,0.117859,0.931152,0.986938,-4.702911,-0.171967,1,1,1,1,1,92.000000
2024-12-21 15:58:55.900,0.7308527382784625,1.072376301760486,0.7794130332281851,1.290586846562338,0.8330790694836804,0.4440076652468209,0.5494559027046809,1.241419170539791,1.001788401488725,0.3432959808394345,0.1866938427054286,1.165817225629917,0.9803353034823576,0.2599600917628402,-0.07448295365074772,0.5394978732297147,0.5763886514676485,-0.2418763542834282,-0.5780071147976956,0.1967274992003691,806.2637362637363,801.4285714285714,793.3699633699634,790.5494505494506,738.974358974359,703.919413919414,-0.412659,-0.049438,0.991089,-0.867310,17.159271,0.949554,1,1,1,1,1,92.000000
2024-12-21 15:58:56.353,,,,,,,,,,,,,,,,,,,,,,,,,,,,,,,,,,,,,,,/muse/elements/blink
2024-12-21 15:58:56.399,0.7308527382784625,1.327706252780373,1.050139878004552,1.240253924722361,0.8330790694836804,0.6110491924210636,0.7998335816245959,1.219007403762062,1.001788401488725,0.3171127709481225,0.1648728743635294,1.146617018446635,0.9803353034823576,0.2910324825873991,-0.01636667152653186,0.5200923152664115,0.5763886514676485,-0.3206137833853346,-0.6629199557904265,0.2101120764411938,844.9450549450549,798.2051282051282,791.3553113553114,823.992673992674,850.1831501831502,669.2673992673992,-0.364624,0.003723,0.951111,0.829926,1.091614,-4.508514,1,1,1,1,1,92.000000
2024-12-21 15:58:56.899,0.7308527382784625,1.327706252780373,1.050139878004552,1.240253924722361,0.8330790694836804,0.6110491924210636,0.7998335816245959,1.219007403762062,1.001788401488725,0.3171127709481225,0.1648728743635294,1.146617018446635,0.9803353034823576,0.2910324825873991,-0.01636667152653186,0.5200923152664115,0.5763886514676485,-0.3206137833853346,-0.6629199557904265,0.2101120764411938,818.3516483516484,807.0695970695971,801.025641025641,795.3846153846154,749.4505494505495,868.3150183150184,-0.364319,0.080261,0.768066,3.760834,2.317810,-4.673004,1,1,1,1,1,92.000000
2024-12-21 15:58:57.400,0.7308527382784625,1.327706252780373,1.050139878004552,1.240253924722361,0.8330790694836804,0.6110491924210636,0.7998335816245959,1.219007403762062,1.001788401488725,0.3171127709481225,0.1648728743635294,1.146617018446635,0.9803353034823576,0.2910324825873991,-0.01636667152653186,0.5200923152664115,0.5763886514676485,-0.3206137833853346,-0.6629199557904265,0.2101120764411938,785.7142857142858,796.996336996337,797.8021978021978,805.0549450549451,939.2307692307693,905.3846153846154,-0.320435,0.101746,0.842163,33.271790,-11.155396,-54.543304,1,1,1,1,1,92.000000
2024-12-21 15:58:57.900,1.563568184904228,1.374051700365974,0.3298580198062163,1.067979555879925,1.443217258257559,0.829226994863679,0.6724750025526399,0.9153811123906437,1.336206050021002,0.763948112711714,0.4562529498292478,0.967670381869724,1.369851220289164,0.2590485474479856,0.2861016039429773,0.5099794709257306,1.039146202691267,0.03139716541252835,-0.238294667727483,0.3935407645086717,779.6703296703297,793.3699633699634,800.2197802197802,782.893772893773,871.941391941392,862.6739926739926,-0.247864,0.069946,0.882568,4.127197,-14.108734,-47.044067,1,1,1,1,1,92.000000
2024-12-21 15:58:58.400,1.563568184904228,1.208249224735182,0.4214720203772241,0.8682361773104775,1.443217258257559,0.732587644115817,0.5651005089533228,0.695712337587589,1.336206050021002,0.7931006565372541,0.5909841983675418,0.967670381869724,1.369851220289164,0.2346457029130672,0.119135721197121,0.6848959048435649,1.039146202691267,-0.04825799933631557,-0.2788016226452145,0.6189724184205879,811.5018315018315,797.3992673992674,803.040293040293,794.5787545787546,816.7399267399268,684.5787545787546,-0.392822,-0.025269,0.928589,3.110352,-0.553284,5.121613,1,1,1,1,1,92.000000
2024-12-21 15:58:58.808,,,,,,,,,,,,,,,,,,,,,,,,,,,,,,,,,,,,,,,/muse/elements/blink
2024-12-21 15:58:58.899,1.563568184904228,1.175292104589556,0.4382300619203462,0.838772335745703,1.443217258257559,0.6766049181008609,0.5400998961117327,0.664885523831418,1.336206050021002,0.8171410831556988,0.5944477302771202,0.967670381869724,1.369851220289164,0.18692438731206,0.09385487736917592,0.6834299586522131,1.039146202691267,-0.1008428021304439,-0.2848024792562674,0.6291360459291874,800.6227106227107,812.7106227106227,791.3553113553114,826.4102564102565,901.7582417582418,810.2930402930403,-0.343872,0.081238,0.818359,-5.869293,1.667328,31.559601,1,1,1,1,1,92.000000
2024-12-21 15:58:59.400,1.613714446972818,1.452910507260758,0.5115932730822524,0.5683979497840842,1.449573809604282,0.6733128248801585,0.3870755995829454,0.3459398387164536,1.311586201626183,0.6532943486445005,0.4414769135360703,0.545311850520687,1.38862347858329,0.133293717634697,-0.177013987146306,0.7696158587084703,1.026532555151394,-0.1755614796773511,-0.3277671313020885,0.7360505306961129,696.2637362637363,770.4029304029305,848.974358974359,720.8424908424909,764.7619047619048,965.8241758241759,-0.301697,0.081848,0.849976,-37.032623,6.130981,47.859039,1,1,1,1,1,92.000000
2024-12-21 15:58:59.580,,,,,,,,,,,,,,,,,,,,,,,,,,,,,,,,,,,,,,,/muse/elements/blink
2024-12-21 15:58:59.900,1.613714446972818,1.57847177578251,0.5204448470627703,0.5586798928111999,1.449573809604282,0.7700426120194711,0.3576323197688299,0.2141803757954265,1.311586201626183,0.5539208346283208,0.3958665036110409,0.2716044499048667,1.38862347858329,0.1057259750633451,-0.2354941878228955,0.8096572232150477,1.026532555151394,-0.2132295182155378,-0.3357108601643753,0.8029094828331349,821.1721611721612,800.2197802197802,792.1611721611722,814.3223443223443,797.8021978021978,592.3076923076924,-0.516052,0.094055,1.129333,2.287903,8.732910,4.052429,1,1,1,1,1,92.000000
2024-12-21 15:59:00.399,1.613714446972818,1.819023263566147,0.5204448470627703,0.5586798928111999,1.449573809604282,0.9983323916996129,0.3576323197688299,0.2141803757954265,1.311586201626183,0.4958394905866595,0.3958665036110409,0.2716044499048667,1.38862347858329,0.1291771754693768,-0.2354941878228955,0.8096572232150477,1.026532555151394,-0.2269176590672071,-0.3357108601643753,0.8029094828331349,797.3992673992674,802.2344322344322,801.8315018315019,788.1318681318681,877.985347985348,711.978021978022,-0.321899,-0.024414,0.949890,2.437439,-4.015045,-5.203857,1,1,1,1,1,92.000000
2024-12-21 15:59:00.906,1.613714446972818,1.377349810543268,0.5204448470627703,0.5586798928111999,1.449573809604282,0.7815221613135794,0.3576323197688299,0.2141803757954265,1.311586201626183,0.4132694836017746,0.3958665036110409,0.2716044499048667,1.38862347858329,0.07073033520524795,-0.2354941878228955,0.8096572232150477,1.026532555151394,-0.3883324646707104,-0.3357108601643753,0.8029094828331349,828.4249084249085,799.4139194139194,799.0109890109891,819.5604395604396,810.6959706959707,823.1868131868132,-0.346741,0.105530,0.831909,-0.426178,-9.802094,-4.254303,1,1,1,1,1,92.000000
2024-12-21 15:59:01.399,0.9179240173526376,1.003403203287792,-0.2658378617170757,0.06785726807060766,0.6462607232027316,0.4332000737248058,-0.3192353444618811,0.1288801179544885,0.8434483431006718,0.4323110384103622,-0.2246396115795044,0.3284362015998794,0.9627003232651885,-0.05216617095746649,-0.05809792878047736,0.4248257310276174,0.742350013057093,-0.2142645806626427,-0.2313968277351237,-0.02637550832606078,767.5824175824176,792.1611721611722,805.0549450549451,792.5641025641025,958.5714285714286,1048.021978021978,-0.289001,-0.045654,0.852600,-0.134583,3.738403,1.211243,1,1,1,1,1,92.000000
2024-12-21 15:59:01.899,0.9179240173526376,0.1890021802432389,-0.1032132242978569,0.06785726807060766,0.6462607232027316,-0.1285355720021933,0.009511570406636805,0.1288801179544885,0.8434483431006718,0.3086577555432296,0.4590366313668275,0.3284362015998794,0.9627003232651885,0.07883596775981555,0.2160252533438049,0.4248257310276174,0.742350013057093,-0.1712600408113816,-0.128081389593869,-0.02637550832606078,847.3626373626374,836.8864468864469,780.0732600732601,813.5164835164835,785.7142857142858,586.6666666666666,-0.403259,0.094299,1.104858,0.971985,-9.757233,-18.908844,1,1,1,1,1,92.000000
2024-12-21 15:59:02.399,0.8681894979374704,0.4706675873819554,0.614864888862056,0.07256002833893348,0.7119587295170484,0.09935498640497847,0.298531836526252,0.1587364891797841,0.7806946944132177,0.334370932124519,0.5582138933203485,0.3079293864226132,0.9813954490322537,0.09254605073660538,0.261749178705075,0.4256734959327799,0.7533557424982404,-0.1563875504868389,-0.1526570184314975,-0.02002676561304113,840.1098901098901,798.6080586080586,808.6813186813187,831.6483516483516,760.3296703296703,566.5201465201466,-0.384766,0.116760,0.918823,22.385559,-0.964508,-33.660583,1,1,1,1,1,92.000000
2024-12-21 15:59:02.899,0.8681894979374704,0.6643632665338389,0.8853332880123971,0.07256002833893348,0.7119587295170484,0.2788765051024946,0.420131728313195,0.1587364891797841,0.7806946944132177,0.5267378026326395,0.5815422107061557,0.3079293864226132,0.9813954490322537,0.2167912808389748,0.3477511337930239,0.4256734959327799,0.7533557424982404,-0.1821594527335085,-0.02875056150226052,-0.02002676561304113,795.3846153846154,817.1428571428571,788.1318681318681,786.9230769230769,941.2454212454213,1038.351648351648,-0.314636,0.098999,0.864197,-5.099182,-2.729034,-20.523834,1,1,1,1,1,92.000000
2024-12-21 15:59:03.399,0.8681894979374704,1.020937940978668,0.9960385887520379,0.07256002833893348,0.7119587295170484,0.6095760960524861,0.4918561763580814,0.1587364891797841,0.7806946944132177,0.7006292304204113,0.5272193273759057,0.3079293864226132,0.9813954490322537,0.1580688048715096,0.2618632834118225,0.4256734959327799,0.7533557424982404,-0.1738334334845971,0.0007406777116331921,-0.02002676561304113,797.8021978021978,775.2380952380953,835.2747252747253,899.7435897435897,701.0989010989011,461.3553113553114,-0.244995,0.214844,0.979126,21.921997,2.093506,-22.639771,1,1,1,1,1,92.000000
2024-12-21 15:59:03.899,0.8681894979374704,1.007657816895972,0.9767557534609204,0.07256002833893348,0.7119587295170484,0.6992254374549002,0.4473982073853219,0.1587364891797841,0.7806946944132177,0.7187871218494303,0.4940942230552806,0.3079293864226132,0.9813954490322537,0.2399505560374504,0.2666378118515095,0.4256734959327799,0.7533557424982404,0.02753103119926351,0.1018324400763442,-0.02002676561304113,869.5238095238095,800.2197802197802,805.0549450549451,770,777.6556776556777,954.1391941391942,-0.209351,0.144470,0.931702,-9.271240,-25.077209,-15.753632,1,1,1,1,1,92.000000
2024-12-21 15:59:04.399,0.8681894979374704,1.015447448489202,0.8539576023989571,0.07256002833893348,0.7119587295170484,0.7458820943129255,0.646281034268626,0.1587364891797841,0.7806946944132177,0.7583627757618808,0.698635198640324,0.3079293864226132,0.9813954490322537,0.1919245267137396,0.2957103447720678,0.4256734959327799,0.7533557424982404,0.03001168300224874,0.1326967691154666,-0.02002676561304113,811.5018315018315,748.2417582417582,838.4981684981685,914.6520146520147,770,639.047619047619,-0.344666,0.103333,1.057739,-10.632019,29.137115,31.200714,1,2,1,1,2,92.000000
2024-12-21 15:59:04.467,,,,,,,,,,,,,,,,,,,,,,,,,,,,,,,,,,,,,,,/muse/elements/jaw_clench
2024-12-21 15:59:04.558,,,,,,,,,,,,,,,,,,,,,,,,,,,,,,,,,,,,,,,/muse/elements/blink
2024-12-21 15:59:04.899,0.8681894979374704,1.09226158873134,0.8443477217497234,0.07256002833893348,0.7119587295170484,0.7761617808488989,0.7508387439691095,0.1587364891797841,0.7806946944132177,0.7276334904822275,0.698635198640324,0.3079293864226132,0.9813954490322537,0.1620901010806987,0.3986837644705882,0.4256734959327799,0.7533557424982404,0.1845420293759394,0.1795326034273055,-0.02002676561304113,846.5567765567765,762.3443223443223,842.5274725274726,850.989010989011,858.2417582417582,728.4981684981685,-0.430481,0.099731,0.850464,-27.881012,15.678864,18.363037,1,2,1,1,2,92.000000
2024-12-21 15:59:05.304,,,,,,,,,,,,,,,,,,,,,,,,,,,,,,,,,,,,,,,/muse/elements/blink
2024-12-21 15:59:05.403,0.8681894979374704,1.166387087271577,0.8443477217497234,0.07256002833893348,0.7119587295170484,0.8031008736858856,0.7508387439691095,0.1587364891797841,0.7806946944132177,0.7242025372661189,0.698635198640324,0.3079293864226132,0.9813954490322537,0.06388739831312855,0.3986837644705882,0.4256734959327799,0.7533557424982404,0.1990449277865027,0.1795326034273055,-0.02002676561304113,746.6300366300367,861.4652014652015,770.8058608058608,753.8827838827839,747.032967032967,674.5054945054945,-0.316284,0.025146,0.949097,-46.610413,-30.856781,102.267761,1,2,1,1,2,92.000000
2024-12-21 15:59:05.718,,,,,,,,,,,,,,,,,,,,,,,,,,,,,,,,,,,,,,,/muse/elements/blink
2024-12-21 15:59:05.905,0.8681894979374704,1.22421377221008,0.8443477217497234,0.07256002833893348,0.7119587295170484,0.7122150580077443,0.7508387439691095,0.1587364891797841,0.7806946944132177,0.616535941346641,0.698635198640324,0.3079293864226132,0.9813954490322537,-0.005836284097695007,0.3986837644705882,0.4256734959327799,0.7533557424982404,0.2887887582385499,0.1795326034273055,-0.02002676561304113,859.047619047619,860.6593406593407,779.2673992673992,752.6739926739926,799.4139194139194,671.2820512820513,-0.291504,0.007263,0.918030,-20.224762,17.824707,18.721924,1,2,1,1,2,92.000000
2024-12-21 15:59:05.958,,,,,,,,,,,,,,,,,,,,,,,,,,,,,,,,,,,,,,,/muse/elements/jaw_clench
2024-12-21 15:59:06.026,,,,,,,,,,,,,,,,,,,,,,,,,,,,,,,,,,,,,,,/muse/elements/blink
